TimeStamp,Delta_TP9,Delta_AF7,Delta_AF8,Delta_TP10,Theta_TP9,Theta_AF7,Theta_AF8,Theta_TP10,Alpha_TP9,Alpha_AF7,Alpha_AF8,Alpha_TP10,Beta_TP9,Beta_AF7,Beta_AF8,Beta_TP10,Gamma_TP9,Gamma_AF7,Gamma_AF8,Gamma_TP10,RAW_TP9,RAW_AF7,RAW_AF8,RAW_TP10,AUX_RIGHT,Accelerometer_X,Accelerometer_Y,Accelerometer_Z,Gyro_X,Gyro_Y,Gyro_Z,HeadBandOn,HSI_TP9,HSI_AF7,HSI_AF8,HSI_TP10,Battery,Elements
2018-11-10 12:38:53.902,,,,,,,,,,,,,,,,,,,,,,,,,,,,,,,,,,,,,,/muse/elements/blink
2018-11-10 12:38:54.809,0.9259029597430453,-inf,0.3490196375386298,0.8661914497797629,-0.07306507092696962,-inf,-0.1641527168602605,0.4120834546119344,0.4319393980941436,-inf,0.1182697441319943,0.3882356017179701,0.2640459879448573,-inf,-0.2069999611468568,0.5622761919122579,-0.06186091727677558,-inf,-0.2789386999660804,0.3633692347905131,841.7216117216118,25.38461538461539,836.4835164835165,846.1538461538462,884.4322344322345,0.362488,-0.004517,0.936157,-0.717773,2.190704,2.856140,1,1,1,1,1,83.546875
2018-11-10 12:38:55.764,,,,,,,,,,,,,,,,,,,,,,,,,,,,,,,,,,,,,,/muse/elements/blink
2018-11-10 12:38:55.808,0.4825587899087205,-inf,0.3417295829248906,0.7279630033170381,-0.2101446546488151,-inf,-0.3527431259325688,0.01533765554115389,0.4242174530469478,-inf,-0.05420268663551572,0.3791340258281717,0.2375459490507451,-inf,-0.2563586441002108,0.4694220293499179,-0.08205225606753576,-inf,-0.2048197916735258,0.2386505778162476,888.4615384615385,25.38461538461539,847.7655677655678,887.6556776556777,850.1831501831502,0.369690,-0.007751,0.932800,-0.919647,1.256104,3.050537,1,1,1,1,1,83.546875
2018-11-10 12:38:56.809,0.5968199597778604,-0.9630216362735082,0.8071814105828933,0.7449406607005463,-0.2186027856609304,-1.355770972167069,0.03891719643447926,-0.3591532205330933,0.1224582984803694,-0.2485262741214094,0.05618486923986114,-0.08950429621733323,0.1866512062271263,-0.8720736579001145,-0.2155100352020984,0.3462959761952918,-0.1327238357274394,-1.167023662130815,-0.3425991197852378,0.3065361655837233,852.6007326007326,25.38461538461539,844.1391941391942,850.5860805860806,851.3919413919414,0.330688,-0.002563,0.948669,1.966400,3.738403,6.512299,1,1,1,1,1,83.546875
2018-11-10 12:38:57.816,1.205784141973099,-0.5650816276014706,0.537971514808422,1.473033001706437,0.7573045716054427,-0.9578309634950312,0.1885069604349809,1.184496092583154,0.8928267669303932,-0.2485262741214094,0.1944188142129954,1.033289205342121,0.4727852943809828,-0.4741336492280768,-0.2015159540132203,0.7637865331284491,0.1269288658712751,-0.7690836534587771,-0.5667961062784909,0.3297059451640433,845.3479853479854,25.38461538461539,848.1684981684982,857.8388278388279,851.7948717948718,0.317566,0.076782,0.945251,0.306549,-0.792542,2.998199,1,1,1,1,1,83.546875
2018-11-10 12:38:58.819,1.436513544049343,-0.5650816276014706,0.2204614839552237,1.310686288634341,1.11074824722242,-0.9578309634950312,0.07528612103453404,1.233856996585986,1.01992811752581,-0.2485262741214094,0.1046000589736396,1.013483547878034,0.3806618800304057,-0.4741336492280768,-0.2535217756085,0.7750599876289394,-0.002426188767155783,-0.7690836534587771,-0.5744140885603278,0.5246319496815999,841.7216117216118,25.38461538461539,831.2454212454213,835.2747252747253,909.0109890109891,0.433105,0.081543,0.908203,2.564545,2.527161,6.519775,1,1,1,1,1,83.546875
2018-11-10 12:38:59.508,,,,,,,,,,,,,,,,,,,,,,,,,,,,,,,,,,,,,,/muse/elements/blink
2018-11-10 12:38:59.809,1.514946858069336,-0.5650816276014706,0.1556113744912161,1.15715826285665,0.9726305829451591,-0.9578309634950312,-0.255122531060683,1.024591895594865,0.6646986773976357,-0.2485262741214094,-0.04222431127623623,0.8206408959019457,0.2603549778019408,-0.4741336492280768,-0.399014223280461,0.6833373754891755,-0.1546855787761375,-0.7690836534587771,-0.6871921136289032,0.5425990563299182,836.8864468864469,25.38461538461539,850.5860805860806,853.8095238095239,865.8974358974359,0.493469,0.102295,0.873596,-2.317810,2.901001,4.134674,1,1,1,1,1,83.531250
2018-11-10 12:39:00.310,,,,,,,,,,,,,,,,,,,,,,,,,,,,,,,,,,,,,,/muse/elements/blink
2018-11-10 12:39:00.546,,,,,,,,,,,,,,,,,,,,,,,,,,,,,,,,,,,,,,/muse/elements/jaw_clench
2018-11-10 12:39:00.808,1.322426782519893,-0.5650816276014706,0.1556113744912161,1.11549131894855,0.6984237638728121,-0.9578309634950312,-0.255122531060683,0.7169508112909351,0.3927512341875344,-0.2485262741214094,-0.04222431127623623,0.6889076854281555,0.2773732544951417,-0.4741336492280768,-0.399014223280461,0.6044207850765895,0.05559487604455338,-0.7690836534587771,-0.6871921136289032,0.5804920205885777,891.2820512820513,25.38461538461539,781.2820512820513,924.7252747252747,882.4175824175825,-0.321106,0.143555,0.958984,-5.046844,-14.377899,37.959747,1,1,4,1,1,83.531250
2018-11-10 12:39:01.820,1.322426782519893,-0.5650816276014706,0.1556113744912161,1.11549131894855,0.6984237638728121,-0.9578309634950312,-0.255122531060683,0.7169508112909351,0.3927512341875344,-0.2485262741214094,-0.04222431127623623,0.6889076854281555,0.2773732544951417,-0.4741336492280768,-0.399014223280461,0.6044207850765895,0.05559487604455338,-0.7690836534587771,-0.6871921136289032,0.5804920205885777,745.8241758241759,25.38461538461539,828.8278388278388,719.2307692307693,798.6080586080586,-0.143494,0.070984,0.987976,6.773987,16.471405,-32.053070,1,1,1,1,1,83.531250
2018-11-10 12:39:01.943,,,,,,,,,,,,,,,,,,,,,,,,,,,,,,,,,,,,,,/muse/elements/blink
2018-11-10 12:39:02.669,,,,,,,,,,,,,,,,,,,,,,,,,,,,,,,,,,,,,,/muse/elements/blink
2018-11-10 12:39:02.809,1.322426782519893,-inf,1.149428524141342,1.11549131894855,0.6984237638728121,-inf,0.4363075737710194,0.7169508112909351,0.3927512341875344,-inf,0.3225084468590408,0.6889076854281555,0.2773732544951417,-inf,0.4387076625184069,0.6044207850765895,0.05559487604455338,-inf,0.4972441458662133,0.5804920205885777,923.1135531135532,25.38461538461539,876.3736263736264,760.3296703296703,737.7655677655678,0.329041,0.039490,0.891602,-24.269714,-9.458160,15.185394,1,2,1,1,2,83.531250
2018-11-10 12:39:03.772,,,,,,,,,,,,,,,,,,,,,,,,,,,,,,,,,,,,,,/muse/elements/blink
2018-11-10 12:39:03.820,1.322426782519893,-inf,1.149428524141342,1.11549131894855,0.6984237638728121,-inf,0.4363075737710194,0.7169508112909351,0.3927512341875344,-inf,0.3225084468590408,0.6889076854281555,0.2773732544951417,-inf,0.4387076625184069,0.6044207850765895,0.05559487604455338,-inf,0.4972441458662133,0.5804920205885777,810.2930402930403,25.38461538461539,711.1721611721612,708.7545787545788,578.2051282051282,0.503845,0.320129,0.923889,34.804535,-4.710388,-58.244324,1,2,4,1,2,83.531250
2018-11-10 12:39:03.947,,,,,,,,,,,,,,,,,,,,,,,,,,,,,,,,,,,,,,/muse/elements/blink
2018-11-10 12:39:04.210,,,,,,,,,,,,,,,,,,,,,,,,,,,,,,,,,,,,,,/muse/elements/blink
2018-11-10 12:39:04.477,,,,,,,,,,,,,,,,,,,,,,,,,,,,,,,,,,,,,,/muse/elements/jaw_clench
2018-11-10 12:39:04.820,1.322426782519893,-inf,1.149428524141342,1.11549131894855,0.6984237638728121,-inf,0.4363075737710194,0.7169508112909351,0.3927512341875344,-inf,0.3225084468590408,0.6889076854281555,0.2773732544951417,-inf,0.4387076625184069,0.6044207850765895,0.05559487604455338,-inf,0.4972441458662133,0.5804920205885777,845.7509157509157,25.38461538461539,825.6043956043957,25.38461538461539,1023.846153846154,0.374817,0.236816,0.790527,-43.664551,-20.792999,74.169922,1,2,2,1,2,83.531250
2018-11-10 12:39:05.824,1.554504666916016,-inf,1.552296891182237,1.11549131894855,1.026358782828548,-inf,1.098965890938863,0.7169508112909351,0.5589628102200476,-inf,0.7415056483773784,0.6889076854281555,1.132169788215924,-inf,0.451580253290588,0.6044207850765895,0.6571178193534708,-inf,-0.181094442255004,0.5804920205885777,842.1245421245421,25.38461538461539,775.6410256410256,905.3846153846154,823.1868131868132,0.438354,0.057434,0.868774,-3.872986,6.243134,-3.723450,1,1,1,1,2,83.531250
2018-11-10 12:39:06.825,1.664159555718478,-inf,1.760980659118142,1.11549131894855,1.145220621116887,-inf,1.009027779443883,0.7169508112909351,1.448595599503525,-inf,0.7295565232854176,0.6889076854281555,1.142437707150411,-inf,0.2834177423357578,0.6044207850765895,0.7224288377951483,-inf,-0.4363626025436175,0.5804920205885777,831.2454212454213,25.38461538461539,813.1135531135532,805.8608058608058,835.2747252747253,0.425659,-0.031799,0.883850,3.342133,-3.065491,-0.620575,1,1,1,1,2,83.531250
2018-11-10 12:39:07.524,,,,,,,,,,,,,,,,,,,,,,,,,,,,,,,,,,,,,,/muse/elements/blink
2018-11-10 12:39:07.717,,,,,,,,,,,,,,,,,,,,,,,,,,,,,,,,,,,,,,/muse/elements/jaw_clench
2018-11-10 12:39:07.827,1.940137689916926,-inf,1.730384220456463,1.11549131894855,1.361947064991053,-inf,1.118885915325293,0.7169508112909351,1.449644534459354,-inf,0.8185730821484341,0.6889076854281555,1.07010478458525,-inf,0.2922009373792899,0.6044207850765895,0.6144227221097432,-inf,-0.3794785352539496,0.5804920205885777,807.0695970695971,25.38461538461539,848.1684981684982,789.7435897435897,865.0915750915751,0.488159,0.060242,0.903320,9.473114,-1.727142,-0.770111,1,1,1,1,2,83.531250
2018-11-10 12:39:08.808,1.970917226305253,-inf,1.710692694803837,1.11549131894855,1.374610652562612,-inf,1.234796452287736,0.7169508112909351,1.449644534459354,-inf,0.7647628985380542,0.6889076854281555,1.057050027827346,-inf,0.4027199243135809,0.6044207850765895,0.5811560670156384,-inf,-0.2673117409571326,0.5804920205885777,836.0805860805862,25.38461538461539,815.934065934066,843.3333333333334,894.908424908425,0.285095,0.011475,0.958923,1.166382,5.158997,-2.586975,1,1,1,1,1,83.531250
2018-11-10 12:39:09.809,1.689899011117584,-inf,1.279398711199492,1.379248223773476,1.130783593841048,-inf,0.4854218715232737,1.246075315479554,1.321950949980892,-inf,0.9027702262888707,1.029080060121924,0.594270550428777,-inf,0.1717811859320523,0.6029337014507863,-0.3249614474714621,-inf,-0.4567127194260273,0.8456545262573639,857.8388278388279,25.38461538461539,849.7802197802198,859.047619047619,832.8571428571429,0.421753,0.080139,0.911194,1.682281,-4.426270,0.650482,1,1,1,1,1,83.500000
2018-11-10 12:39:10.822,1.437615626266735,-3.00427813704652,1.230568409001794,1.246646465353106,0.8522409930925924,-3.090161231781779,0.379997539199385,0.9691878640750279,1.32412881912476,-2.013045734559145,0.8852233537526464,1.060307856888462,0.4077523239875363,-3.13952535678467,-0.05477611052343039,0.6217064351165266,-0.2569335697587741,-3.470313350112451,-0.516487706710184,0.6716033549825892,857.8388278388279,25.38461538461539,854.6153846153846,850.5860805860806,819.5604395604396,0.486389,0.066895,0.871948,-0.142059,-2.033691,4.351501,1,1,1,1,1,83.500000
2018-11-10 12:39:11.811,1.318211970892637,-inf,1.193852831890303,1.103115032846435,0.7268950998733564,-inf,0.304040627855163,0.697962671992042,0.59594455559296,-inf,0.312677725776677,0.731513977577873,0.3651362165858625,-inf,-0.3216856403771121,0.5155454725045052,-0.07355573235157806,-inf,-0.7227323073715665,0.3490332331911684,860.2564102564103,25.38461538461539,851.3919413919414,861.0622710622711,861.4652014652015,0.519653,0.049927,0.866150,-2.063599,3.401947,1.861725,1,1,1,1,1,83.500000
2018-11-10 12:39:12.809,1.297140453962025,-inf,0.9322788033253696,1.214276501193322,0.7783501263404257,-inf,0.09082065783383496,0.6591201766474017,0.6129018401450254,-inf,0.312677725776677,0.8751054993684344,0.3515484635886686,-inf,-0.3406300986615876,0.5981609560549378,-0.1038856590801524,-inf,-0.809319334740455,0.2132485920383364,846.1538461538462,25.38461538461539,859.8534798534798,832.0512820512821,850.1831501831502,0.483704,0.065308,0.877258,1.592560,3.117828,5.031891,1,1,1,1,1,83.500000
2018-11-10 12:39:13.111,,,,,,,,,,,,,,,,,,,,,,,,,,,,,,,,,,,,,,/muse/elements/blink
2018-11-10 12:39:13.809,1.040249646667705,-inf,1.671317346735677,1.167482636672159,0.8255762319685694,-inf,1.052779334065481,0.7514416717867626,0.8835505888337186,-inf,0.8029443089410864,0.8672873850316865,0.3496744442326045,-inf,-0.2686145170740808,0.6599278636608055,-0.2672346819114522,-inf,-0.749450661004288,0.07729551455957573,842.9304029304029,25.38461538461539,852.1978021978023,849.7802197802198,835.6776556776557,0.454590,0.050232,0.892700,-2.654266,6.863708,4.478607,1,1,1,1,1,83.500000
2018-11-10 12:39:14.812,1.108570969749251,0.8672962878931033,1.658213407175847,1.623826499533534,0.7887144248285924,0.688274146618812,1.069213337624328,1.199860155815469,0.39258387897486,0.9824324008845657,0.8253992530819539,1.263811913104453,0.4754932894302876,0.5508794041027218,-0.05589286181461941,0.7046005479492339,0.3539773460495663,-0.0566236277796883,-0.6773283707034651,0.3642923659540342,853.8095238095239,25.38461538461539,827.2161172161173,828.021978021978,821.1721611721612,0.278442,0.011169,0.933350,-28.052979,-2.833710,33.398895,1,1,1,1,1,83.500000
2018-11-10 12:39:15.809,1.06200577510829,1.340939605027678,0.9168535854502516,1.520189642681273,0.7323292934965091,1.152222762878585,0.5901319852663773,1.115728534569729,0.3667395866592519,0.9824324008845657,0.5597906180031116,1.343271505850633,0.4833513142682843,1.034649916257828,-0.09725283200299399,0.9060814762501429,0.3099046146667758,0.4050164194966747,-0.6155212785255408,0.6630847357105257,796.1904761904763,0,857.4358974358975,749.4505494505495,878.7912087912089,0.474548,-0.013550,0.908569,-3.058014,9.256287,15.604095,1,1,1,1,1,83.500000
2018-11-10 12:39:16.080,,,,,,,,,,,,,,,,,,,,,,,,,,,,,,,,,,,,,,/muse/elements/blink
2018-11-10 12:39:16.255,,,,,,,,,,,,,,,,,,,,,,,,,,,,,,,,,,,,,,/muse/elements/jaw_clench
2018-11-10 12:39:16.775,,,,,,,,,,,,,,,,,,,,,,,,,,,,,,,,,,,,,,/muse/elements/blink
2018-11-10 12:39:16.809,1.023813217891301,1.429505693774351,1.471029638195867,1.304757279612065,0.6207812511277547,1.240581418190279,1.232390596900846,1.202164408523556,0.1342207732208029,0.9824324008845657,1.155329653607995,1.125680576595212,0.4760837639139749,1.142956911686704,0.5765104762625641,1.050342064702,0.2182274088143875,0.4900549083347015,0.02548331790455777,0.8839576437266004,1083.882783882784,25.38461538461539,828.4249084249085,853.4065934065934,861.4652014652015,0.334167,-0.174011,0.919800,-5.682373,-5.869293,5.749664,1,4,4,1,1,83.500000
2018-11-10 12:39:17.785,,,,,,,,,,,,,,,,,,,,,,,,,,,,,,,,,,,,,,/muse/elements/jaw_clench
2018-11-10 12:39:17.808,1.023813217891301,1.429505693774351,1.866861102829204,1.211287831147936,0.6207812511277547,1.240581418190279,1.218299275904675,1.199894692314478,0.1342207732208029,0.9824324008845657,1.136463414913489,1.122134275129772,0.4760837639139749,1.142956911686704,0.5055423429090178,1.060543916944983,0.2182274088143875,0.4900549083347015,-0.1047560133550576,0.9107196342927413,924.3223443223443,25.38461538461539,849.3772893772895,843.7362637362637,847.3626373626374,0.401733,-0.028259,0.942261,27.215576,6.018829,-16.568604,1,4,4,1,1,83.500000
2018-11-10 12:39:18.809,1.023813217891301,1.429505693774351,1.592966923339657,1.211287831147936,0.6207812511277547,1.240581418190279,0.7508572462971425,1.199894692314478,0.1342207732208029,0.9824324008845657,0.4745485933437151,1.122134275129772,0.4760837639139749,1.142956911686704,0.04785062057745269,1.060543916944983,0.2182274088143875,0.4900549083347015,-0.636595043473788,0.9107196342927413,917.4725274725275,25.38461538461539,849.3772893772895,878.7912087912089,815.934065934066,0.406921,0.101135,0.920532,-0.194397,0.493469,2.093506,1,2,2,1,2,83.500000
2018-11-10 12:39:19.808,1.923936623579987,1.429505693774351,0.840295712480296,1.211287831147936,1.153348304280383,1.240581418190279,0.3310567369853634,1.199894692314478,0.9324744511273192,0.9824324008845657,0.8453532594273346,1.122134275129772,0.6322314120632155,1.142956911686704,0.01620601337378463,1.060543916944983,0.1759489088662698,0.4900549083347015,-0.8021128870819842,0.9107196342927413,871.1355311355312,1646.776556776557,854.2124542124542,900.5494505494506,968.2417582417582,0.249329,0.271606,0.981262,5.525360,-7.663727,-0.037384,1,1,4,1,1,83.484375
2018-11-10 12:39:20.817,1.731488838168523,1.429505693774351,1.368052767356676,1.211287831147936,1.004542280991092,1.240581418190279,0.9942466464275119,1.199894692314478,1.081137090255173,0.9824324008845657,1.090190008939776,1.122134275129772,0.4521675285585546,1.142956911686704,0.3619373373314833,1.060543916944983,0.4720000101929666,0.4900549083347015,-0.7886282347251988,0.9107196342927413,861.4652014652015,25.38461538461539,853.8095238095239,841.3186813186813,872.7472527472528,0.518921,0.144592,0.907043,-11.461945,22.707062,19.641571,1,1,2,1,1,83.484375
2018-11-10 12:39:21.018,,,,,,,,,,,,,,,,,,,,,,,,,,,,,,,,,,,,,,/muse/elements/blink
2018-11-10 12:39:21.819,1.344607787722462,1.429505693774351,1.63537158358425,1.211287831147936,0.6176852530522142,1.240581418190279,0.8907037701102589,1.199894692314478,0.5733893750396397,0.9824324008845657,0.7161385238962968,1.122134275129772,0.3599072982579196,1.142956911686704,0.2139866821189085,1.060543916944983,0.6074201408946739,0.4900549083347015,-0.1056085218197918,0.9107196342927413,861.8681318681319,25.38461538461539,825.2014652014652,832.0512820512821,804.2490842490843,0.137634,0.052185,1.026001,-9.996490,12.104950,-10.968475,1,1,2,1,1,83.484375
2018-11-10 12:39:22.674,,,,,,,,,,,,,,,,,,,,,,,,,,,,,,,,,,,,,,/muse/elements/blink
2018-11-10 12:39:22.812,0.9224970520101047,1.429505693774351,1.594429786804114,1.211287831147936,0.4895835885165531,1.240581418190279,0.9470899516971412,1.199894692314478,0.5787498295922837,0.9824324008845657,0.7836136775070269,1.122134275129772,0.5307581567323705,1.142956911686704,0.1738210095893261,1.060543916944983,-0.1219357218766549,0.4900549083347015,-0.1216244389206772,0.9107196342927413,915.0549450549451,234.5054945054945,857.032967032967,930.7692307692308,862.2710622710623,0.472534,0.203430,0.929260,-31.896057,-15.275116,-66.790314,1,1,4,1,1,83.484375
2018-11-10 12:39:23.266,,,,,,,,,,,,,,,,,,,,,,,,,,,,,,,,,,,,,,/muse/elements/blink
2018-11-10 12:39:23.809,0.8254244828396272,1.429505693774351,1.639756639118793,1.211287831147936,0.5019181108992404,1.240581418190279,1.232976866965256,1.199894692314478,0.5716484447721049,0.9824324008845657,0.9054063017252002,1.122134275129772,0.5758838790378469,1.142956911686704,0.07571798459675731,1.060543916944983,-0.1005900955874794,0.4900549083347015,-0.5291278056347187,0.9107196342927413,884.0293040293041,1647.582417582418,863.8827838827839,883.6263736263736,945.6776556776557,0.524536,0.066284,0.851929,8.321686,9.241333,45.107574,1,1,4,1,1,83.484375
2018-11-10 12:39:24.808,1.544691695225771,1.429505693774351,1.581740823946636,1.211287831147936,1.06040498386782,1.240581418190279,1.111479083753537,1.199894692314478,0.8320455160687309,0.9824324008845657,0.9655088743285847,1.122134275129772,0.8365577080409244,1.142956911686704,0.1332901475287563,1.060543916944983,0.4462020058734805,0.4900549083347015,-0.4994134448732764,0.9107196342927413,846.1538461538462,25.38461538461539,880,861.8681318681319,865.4945054945056,0.625061,0.306030,0.682007,15.858307,-0.067291,28.613739,1,1,4,1,1,83.484375
2018-11-10 12:39:25.833,1.578024247390214,1.429505693774351,1.526475992255623,1.211287831147936,1.133499544592319,1.240581418190279,1.26394262143995,1.199894692314478,0.9247418681860358,0.9824324008845657,1.131384300724966,1.122134275129772,0.733805323487243,1.142956911686704,0.3595934209607065,1.060543916944983,0.5538000148286299,0.4900549083347015,-0.3746432501520238,0.9107196342927413,843.7362637362637,817.5457875457876,834.4688644688645,860.6593406593407,923.1135531135532,0.501892,0.631714,0.886108,-17.563019,16.972351,21.682739,1,1,4,1,1,83.484375
2018-11-10 12:39:26.814,1.386952636174316,1.429505693774351,1.372784481988853,1.211287831147936,1.047769261119228,1.240581418190279,0.9381075229414367,1.199894692314478,0.9632587648395361,0.9824324008845657,0.998544506186016,1.122134275129772,0.6900190330396387,1.142956911686704,0.1473586501852056,1.060543916944983,0.6806731680762161,0.4900549083347015,-0.6539934459696158,0.9107196342927413,835.6776556776557,224.029304029304,848.5714285714286,854.2124542124542,845.3479853479854,0.321594,0.174377,0.932007,-10.220795,5.106659,-33.428802,1,1,4,1,1,83.484375
2018-11-10 12:39:27.809,1.129789720786674,1.429505693774351,1.346966247937659,1.689324525669478,0.6580063966210836,1.240581418190279,0.5941243441272104,1.015072167175086,0.7035934981712338,0.9824324008845657,0.4621456024478264,1.158128844725922,0.5418794020213812,1.142956911686704,-0.2304344533832935,0.6344390596850722,0.3016213773084214,0.4900549083347015,-0.8200550840188243,0.2853645671657672,841.7216117216118,511.7216117216117,856.2271062271062,883.6263736263736,857.8388278388279,0.313171,0.181641,0.914551,-5.398254,0.366364,1.757050,1,1,4,1,1,83.484375
2018-11-10 12:39:28.817,0.7082931413637843,1.429505693774351,0.8981537708116739,1.125958516371606,0.1941085692390161,1.240581418190279,0.09291068974551643,0.7288090215254122,0.728897224875409,0.9824324008845657,0.0901171609425495,0.9723774992686522,0.51280100196033,1.142956911686704,-0.363355362424264,0.5662711556699952,0.5008580941826515,0.4900549083347015,-0.9736759518515344,0.09538921833288265,852.1978021978023,25.38461538461539,849.3772893772895,841.3186813186813,757.5091575091575,0.347229,0.255432,0.901062,16.508789,-1.824341,12.830200,1,1,4,1,1,83.484375
2018-11-10 12:39:29.812,1.026503239376877,1.429505693774351,1.029274153150309,1.552224079020019,0.8399935800155046,1.240581418190279,0.4823968514498861,1.085437411776407,0.8193761230338358,0.9824324008845657,0.78666407660944,0.7793006437632517,0.5080701763102661,1.142956911686704,-0.2746412986250394,0.6974729710967725,0.4015938033991343,0.4900549083347015,-0.7266265872793374,0.3135066655919183,774.4322344322345,25.38461538461539,856.2271062271062,788.1318681318681,742.6007326007326,0.425110,0.068542,0.914368,-10.549774,8.456268,-15.566711,1,1,4,1,1,83.453125
2018-11-10 12:39:29.988,,,,,,,,,,,,,,,,,,,,,,,,,,,,,,,,,,,,,,/muse/elements/blink
2018-11-10 12:39:30.243,,,,,,,,,,,,,,,,,,,,,,,,,,,,,,,,,,,,,,/muse/elements/blink
2018-11-10 12:39:30.808,1.324046238134478,1.429505693774351,1.553470342078684,1.884704575196285,1.089027784927807,1.240581418190279,0.8314088175266351,1.330825812492982,0.4342759721066749,0.9824324008845657,0.7947227167838392,0.6990091699644484,0.5659775166060027,1.142956911686704,0.08255154462295643,0.7724694198731233,0.2613558133938128,0.4900549083347015,-0.5872866745869352,0.4331362116545922,886.0439560439561,25.38461538461539,971.0622710622711,882.014652014652,819.96336996337,0.069336,0.139709,0.994629,-4.441223,-8.755341,-3.955231,1,1,4,1,1,83.453125
2018-11-10 12:39:31.820,1.30517947929367,1.429505693774351,1.942395965719365,1.884704575196285,1.067603871602803,1.240581418190279,1.032646033372778,1.330825812492982,0.3998998929136064,0.9824324008845657,0.7955479061741157,0.6990091699644484,0.5532940300788038,1.142956911686704,0.2617496683240982,0.7724694198731233,0.2210779986868398,0.4900549083347015,-0.5483234067393062,0.4331362116545922,867.5091575091575,52.38095238095238,865.4945054945056,862.2710622710623,805.4578754578755,0.209229,0.188538,0.970215,1.786957,2.796326,1.069183,1,1,4,1,1,83.453125
2018-11-10 12:39:32.809,1.167776140990177,1.429505693774351,1.882063600705409,1.521031193197619,0.7594380393532265,1.240581418190279,0.4566012304514032,1.141626926781665,0.679812611816663,0.9824324008845657,0.5020781794229771,0.833799974965889,0.06426315202457711,1.142956911686704,-0.05743628823620994,0.4478211927631142,-0.03447268613312046,0.4900549083347015,-0.1272563909723232,-0.05770738548032482,853.0036630036631,355.3846153846154,844.9450549450549,857.4358974358975,875.5677655677656,0.198486,0.165283,0.969849,-1.278534,-0.246735,4.007568,1,1,2,1,1,83.453125
2018-11-10 12:39:33.809,0.8208541204731432,1.429505693774351,1.417653099987452,0.878045806504013,0.1154210018457019,1.240581418190279,0.132198125839863,0.2701383004022883,0.3264877109441854,0.9824324008845657,0.2625355595247792,0.3632687457266977,-0.05980263039896768,1.142956911686704,-0.09803677349984259,0.1276997132776139,-0.3014089567116782,0.4900549083347015,-0.4449906169175954,-0.2672642772704094,855.0183150183151,27.8021978021978,873.5531135531136,854.6153846153846,825.2014652014652,0.255981,0.162720,0.950623,-1.614990,0.687866,3.274841,1,1,2,1,1,83.453125
2018-11-10 12:39:34.830,0.7720834881684903,1.429505693774351,1.271786388830373,0.5926617667293299,0.0427798871125068,1.240581418190279,0.03667866893028053,0.08592850758887036,0.268079580417325,0.9824324008845657,0.1509077538334501,0.6169257944922391,-0.05306528419979321,1.142956911686704,-0.2102246089824762,0.03776381407962608,-0.5232216852132464,0.4900549083347015,-0.7741538642879139,-0.4120538437593458,868.7179487179487,153.5164835164835,850.989010989011,861.0622710622711,817.1428571428571,0.254822,0.163086,0.951294,-0.508423,2.011261,2.848663,1,1,2,1,1,83.453125
2018-11-10 12:39:35.816,0.261824423179017,1.429505693774351,0.484183068902124,0.2666540020659562,-0.2445506612318224,1.240581418190279,-0.2412761100237527,0.002166344189806092,0.3510135151191814,0.9824324008845657,0.08486546741566932,0.67106194396754,-0.0728987593084444,1.142956911686704,-0.4378718668857197,0.0791810368883753,-0.4119895019763867,0.4900549083347015,-0.89642042880929,-0.5808866786678449,865.4945054945056,314.2857142857143,843.3333333333334,867.5091575091575,835.2747252747253,0.262085,0.166565,0.952515,-0.717773,1.555176,2.429962,1,1,2,1,1,83.453125
2018-11-10 12:39:36.811,0.3150052506889545,1.429505693774351,-0.2320017123024958,0.2328708968826362,-0.2151145880211704,1.240581418190279,-0.3934474614378172,0.003440125437405733,0.3624836548981596,0.9824324008845657,-0.09213737841587871,0.2854879685076744,-0.07371735793927819,1.142956911686704,-0.4694815773182131,0.06648831240184618,-0.3556686462342488,0.4900549083347015,-0.908078248031703,-0.35980944540554,859.047619047619,407.7655677655678,842.5274725274726,859.4505494505495,875.5677655677656,0.265198,0.168457,0.953857,-0.643005,1.764526,3.364563,1,1,2,1,1,83.453125
2018-11-10 12:39:37.829,1.05867946962194,1.429505693774351,0.260375715112746,0.9121417933606434,0.07011459185862348,1.240581418190279,-0.2256360750054571,0.2066895124878282,0.3480613852392827,0.9824324008845657,0.2202628760903176,0.4528082835126471,-0.04200401751910273,1.142956911686704,-0.3333159814565317,0.05214550647807493,-0.3587554612402468,0.4900549083347015,-0.8310943772557661,-0.2925355550159307,791.3553113553114,25.38461538461539,777.2527472527473,783.6996336996338,906.1904761904763,0.185303,0.180298,0.949402,-1.166382,-6.968384,2.601929,1,1,2,1,1,83.453125
2018-11-10 12:39:38.809,1.47618468097032,1.429505693774351,0.7995563259213213,1.342477461334278,0.3772150526835816,1.240581418190279,0.2232759505859778,0.461778016570832,0.1421562227254146,0.9824324008845657,0.5889868011091189,0.447491797067639,0.0006259880010791324,1.142956911686704,-0.02688323822336129,0.2505639997987751,-0.2725885549132983,0.4900549083347015,-0.6475578408159089,-0.1062310658421147,857.4358974358975,27.3992673992674,858.6446886446887,844.5421245421246,838.4981684981685,0.513428,0.106995,0.860657,-0.179443,0.800018,1.061707,1,1,1,1,1,83.453125
2018-11-10 12:39:39.808,1.364527576149964,1.429505693774351,0.8503088399949742,1.324117123114246,1.164538228907981,1.240581418190279,-0.09908107737801994,1.082186869460657,0.8784926904318864,0.9824324008845657,-0.1056611996953643,0.8168573481212889,0.3866796989257908,1.142956911686704,-0.2403230823823952,0.750955243729869,-0.1366823153228284,0.4900549083347015,-0.7611104633222785,0.1854364987022378,865.8974358974359,25.38461538461539,838.4981684981685,878.3882783882784,815.5311355311355,0.553040,0.113892,0.835205,1.764526,8.037567,4.426270,1,1,2,1,1,83.437500
2018-11-10 12:39:39.819,,,,,,,,,,,,,,,,,,,,,,,,,,,,,,,,,,,,,,/muse/elements/blink
2018-11-10 12:39:40.230,,,,,,,,,,,,,,,,,,,,,,,,,,,,,,,,,,,,,,/muse/elements/blink
2018-11-10 12:39:40.809,1.364527576149964,1.429505693774351,1.023330461867587,1.324117123114246,1.164538228907981,1.240581418190279,-0.01408527640292491,1.082186869460657,0.8784926904318864,0.9824324008845657,-0.04464521493553352,0.8168573481212889,0.3866796989257908,1.142956911686704,-0.3352565677563099,0.750955243729869,-0.1366823153228284,0.4900549083347015,-0.6894702226976347,0.1854364987022378,818.3516483516484,458.5347985347985,817.948717948718,828.4249084249085,833.2600732600733,0.435608,0.224548,0.887695,-0.650482,1.600037,5.031891,1,1,2,1,1,83.437500
2018-11-10 12:39:41.751,,,,,,,,,,,,,,,,,,,,,,,,,,,,,,,,,,,,,,/muse/elements/jaw_clench
2018-11-10 12:39:41.809,1.253091164528654,1.429505693774351,1.179444518050286,0.9866982599810344,0.4842647011056841,1.240581418190279,0.3391141208921425,0.6821962694618866,0.3750571573756107,0.9824324008845657,0.01900760611459778,0.8474861228664033,0.5972582348403861,1.142956911686704,-0.3850804732224112,0.6595888380175235,0.4718289311222736,0.4900549083347015,-0.7261899476839853,0.4613829858896994,861.8681318681319,388.021978021978,858.2417582417582,848.974358974359,880.8058608058608,0.375244,0.189331,0.924255,6.527252,5.196381,17.039642,1,1,4,1,1,83.437500
2018-11-10 12:39:42.353,,,,,,,,,,,,,,,,,,,,,,,,,,,,,,,,,,,,,,/muse/elements/blink
2018-11-10 12:39:42.827,1.162538757659633,1.429505693774351,1.907002225362547,0.87400991011965,0.9435199222438154,1.240581418190279,0.7749824353913179,0.7527713260366444,1.269047171461013,0.9824324008845657,0.7713198659357269,1.262620550448488,0.8176988768613911,1.142956911686704,0.1102900197847823,0.9268178534981621,0.4390765479059823,0.4900549083347015,-0.4447232355698413,0.5645781986684536,886.0439560439561,646.3003663003664,871.1355311355312,904.5787545787546,920.6959706959707,0.386597,0.260620,0.873352,-11.663818,6.265564,67.807159,1,1,4,1,1,83.437500
2018-11-10 12:39:43.827,1.353658711607625,1.429505693774351,1.86452038692335,1.744627480378311,1.033038298369012,1.240581418190279,0.824712195859678,1.124016556566525,1.269047171461013,0.9824324008845657,0.738050507893157,0.788834447778798,0.7091660057390198,1.142956911686704,0.01038384823919462,0.7481160193625406,0.2024143493978904,0.4900549083347015,-0.6254901464734172,0.2750689036889405,864.6886446886447,566.5201465201466,843.7362637362637,859.4505494505495,893.2967032967033,0.461609,0.229187,0.859070,3.379517,3.843079,4.538422,1,1,2,1,1,83.437500
2018-11-10 12:39:44.826,1.154024879537796,1.429505693774351,0.842423297073244,1.561604988350263,0.5089750930434166,1.240581418190279,-0.06678425621466069,0.8922232973525877,0.5698491717380019,0.9824324008845657,0.4783788031616149,0.979556591859609,0.3125084441811782,1.142956911686704,-0.3068044800438808,0.6745297053109189,-0.07539649765465757,0.4900549083347015,-0.6731171297724694,0.1911921687468354,862.2710622710623,500.4395604395605,846.5567765567765,859.8534798534798,841.3186813186813,0.497559,0.188782,0.858948,-1.465454,1.106567,2.489777,1,1,2,1,1,83.437500
2018-11-10 12:39:45.824,1.111897057041628,1.429505693774351,0.402367563632807,1.482459790802196,0.4281837203293591,1.240581418190279,-0.0377968284688931,0.7950324849584293,0.6202042491708768,0.9824324008845657,0.1065094972410264,1.082560871152258,0.3280668071088296,1.142956911686704,-0.2629924108367805,0.5447888604680695,-0.01796650830195253,0.4900549083347015,-0.7174560809963229,-0.08222389644763432,866.3003663003664,566.9230769230769,838.0952380952381,863.0769230769231,829.6336996336996,0.476135,0.216064,0.872803,1.226196,3.775787,1.106567,1,1,2,1,1,83.437500
2018-11-10 12:39:46.816,0.769341874249124,1.429505693774351,0.4899745568865162,1.541104543387404,0.4271754837240632,1.240581418190279,0.2257021189132469,0.9758491287591859,0.5202971941682071,0.9824324008845657,0.2935044640458233,1.222634760430581,0.4012699327833438,1.142956911686704,-0.2981115877234387,0.5313863977301347,0.1653518168266199,0.4900549083347015,-0.6408889835690658,-0.00553956975341141,864.6886446886447,462.1611721611721,850.5860805860806,880,859.047619047619,0.433411,0.197449,0.877563,-0.822449,8.067474,4.448700,1,1,2,1,1,83.437500
2018-11-10 12:39:47.808,0.9405399974656921,1.429505693774351,0.7335633204547075,1.535804646844561,0.4240980071661606,1.240581418190279,0.1156321481998778,0.7186531833196864,0.4201193348601032,0.9824324008845657,0.2404990569817795,0.8995514461331664,0.4083291301699729,1.142956911686704,-0.3047997855092052,0.5306491222230163,0.0851588406166857,0.4900549083347015,-0.7707856403544191,-0.009248148522240056,853.0036630036631,515.3479853479854,835.2747252747253,859.8534798534798,843.7362637362637,0.444641,0.190613,0.881958,-0.882263,2.011261,2.781372,1,1,2,1,1,83.437500
2018-11-10 12:39:48.823,1.040338872171767,1.429505693774351,0.5708825077291827,1.307257723381763,0.6670824977804379,1.240581418190279,0.4420010550848208,0.8409226340125689,0.9642705477068941,0.9824324008845657,0.2842497601794702,1.25640849616634,0.4168370432401892,1.142956911686704,-0.3843384008744478,0.6060116274902878,0.05589401101874312,0.4900549083347015,-0.8426634051605882,-0.01244442433223326,863.0769230769231,578.6080586080586,846.1538461538462,849.3772893772895,884.0293040293041,0.428955,0.227295,0.886597,-0.097198,0.672913,5.607605,1,1,2,1,1,83.437500
2018-11-10 12:39:49.811,1.302174156496645,1.429505693774351,0.4781220292585371,1.651426090808955,0.8579148033088229,1.240581418190279,0.3338087994325618,1.103160558259072,1.191292344606778,0.9824324008845657,0.3034668482756257,1.266675777771664,0.5367790749058741,1.142956911686704,-0.3451109908852056,0.5825741766124296,0.1666551567668083,0.4900549083347015,-0.8137166548200027,-0.09642532181151615,865.4945054945056,690.2197802197802,850.1831501831502,867.5091575091575,837.2893772893773,0.382874,0.189331,0.911072,-3.431854,2.250519,-2.788849,1,1,2,1,1,83.421875
2018-11-10 12:39:50.809,1.535133918323177,1.429505693774351,0.1270779703392342,1.68903903294451,0.926540172293726,1.240581418190279,-0.178896137567726,1.054745105105099,1.230348566392909,0.9824324008845657,0.1226963668193743,1.076748930301174,0.6455272122102279,1.142956911686704,-0.4332182481741641,0.5291481096971705,0.302309279048213,0.4900549083347015,-0.8135057454346551,-0.02762829077913007,855.0183150183151,626.959706959707,846.1538461538462,846.959706959707,875.9706959706959,0.421875,0.200317,0.894348,0.942078,4.702911,6.130981,1,1,2,1,1,83.421875
2018-11-10 12:39:51.309,,,,,,,,,,,,,,,,,,,,,,,,,,,,,,,,,,,,,,/muse/elements/blink
2018-11-10 12:39:51.817,1.636253730415025,1.429505693774351,-0.1201128090503789,1.610202682873498,0.9590367854781122,1.240581418190279,-0.4413424703035324,1.047686980473274,1.233945625319466,0.9824324008845657,0.0006619866792034878,1.166206880240702,0.6044847600992551,1.142956911686704,-0.3894902531920358,0.6102697559039789,0.2726918620574857,0.4900549083347015,-0.7677107308899429,0.03944965486912605,847.7655677655678,635.8241758241759,843.3333333333334,843.7362637362637,907.3992673992674,0.351929,0.184509,0.921570,-8.276825,4.583282,3.693542,1,1,2,1,1,83.421875
2018-11-10 12:39:52.199,,,,,,,,,,,,,,,,,,,,,,,,,,,,,,,,,,,,,,/muse/elements/blink
2018-11-10 12:39:52.809,,,,,,,,,,,,,,,,,,,,,,,,,,,,,,,,,,,,,,/muse/elements/blink
2018-11-10 12:39:52.830,1.956196340874928,1.429505693774351,0.5960137312984903,1.883984587909229,1.162974626324644,1.240581418190279,-0.1446299476566969,1.076814047989604,1.231736173448528,0.9824324008845657,-0.06188808568445288,1.154427804234088,0.5890797869604704,1.142956911686704,-0.2234038561863344,0.8209656142501512,0.3218902897203144,0.4900549083347015,-0.7822432570343877,0.2016247408785155,759.1208791208792,25.38461538461539,828.4249084249085,716.8131868131868,846.1538461538462,0.021912,0.124084,0.956238,-3.544006,-35.387726,-5.024414,1,1,2,1,1,83.421875
2018-11-10 12:39:53.411,,,,,,,,,,,,,,,,,,,,,,,,,,,,,,,,,,,,,,/muse/elements/blink
2018-11-10 12:39:53.748,,,,,,,,,,,,,,,,,,,,,,,,,,,,,,,,,,,,,,/muse/elements/blink
2018-11-10 12:39:53.809,1.986348508213014,1.429505693774351,0.8804166128419654,1.913109748126379,1.141810050318903,1.240581418190279,0.08947623010087308,0.9973928909412206,1.20924682659519,0.9824324008845657,0.1654282000039064,1.127745606040168,0.519472952985108,1.142956911686704,-0.1731109605203984,0.8544552594879939,0.3515644140548026,0.4900549083347015,-0.6806060471447387,0.2604902103475076,855.0183150183151,1650,715.2014652014652,855.8241758241759,811.0989010989011,0.133301,0.198669,0.989075,5.929108,0.029907,3.035583,1,1,4,1,1,83.421875
2018-11-10 12:39:54.628,,,,,,,,,,,,,,,,,,,,,,,,,,,,,,,,,,,,,,/muse/elements/blink
2018-11-10 12:39:54.809,1.986348508213014,1.429505693774351,0.9205172502110683,1.913109748126379,1.141810050318903,1.240581418190279,0.2706974351789644,0.9973928909412206,1.20924682659519,0.9824324008845657,0.1654282000039064,1.127745606040168,0.519472952985108,1.142956911686704,-0.06819102991992473,0.8544552594879939,0.3515644140548026,0.4900549083347015,-0.5530264984615562,0.2604902103475076,887.2527472527473,1650,833.6630036630037,886.0439560439561,879.1941391941392,0.211548,0.161255,0.961426,1.181335,-0.381317,2.497253,1,2,4,2,2,83.421875
2018-11-10 12:39:55.827,1.986348508213014,1.429505693774351,0.9205172502110683,1.913109748126379,1.141810050318903,1.240581418190279,0.2706974351789644,0.9973928909412206,1.20924682659519,0.9824324008845657,0.1654282000039064,1.127745606040168,0.519472952985108,1.142956911686704,-0.06819102991992473,0.8544552594879939,0.3515644140548026,0.4900549083347015,-0.5530264984615562,0.2604902103475076,862.6739926739926,1133.443223443224,875.5677655677656,857.4358974358975,829.6336996336996,0.228760,0.177124,0.963745,-0.994415,2.362671,3.140259,1,2,4,1,2,83.421875
2018-11-10 12:39:56.808,1.449547899724837,1.429505693774351,1.206871744581205,1.517784301268823,0.4509613197738946,1.240581418190279,0.4942123251100494,0.4848479677578647,0.4942133710399449,0.9824324008845657,-0.06692003190008337,0.6096218081080872,0.1494245085792545,1.142956911686704,-0.2140007335213771,0.1268901905517744,0.02559999225900916,0.4900549083347015,-0.6884262500888108,0.03710772883444402,853.0036630036631,25.38461538461539,840.9157509157509,871.5384615384615,818.7545787545788,0.303101,0.182739,0.974915,-1.884155,8.104858,-0.239258,1,1,4,1,1,83.421875
2018-11-10 12:39:57.213,,,,,,,,,,,,,,,,,,,,,,,,,,,,,,,,,,,,,,/muse/elements/blink
2018-11-10 12:39:57.825,0.969148814894667,1.429505693774351,1.191520916828328,1.241271315870593,0.1144585938712099,1.240581418190279,0.4971028599263744,0.3386319447627539,0.4443399498894564,0.9824324008845657,-0.1099741821867036,0.5831498103651716,0.3849740256494002,1.142956911686704,-0.1874445461187165,-0.01261041842537688,0.004809279675197711,0.4900549083347015,-0.7330718999521757,-0.138529959983924,857.8388278388279,25.38461538461539,829.6336996336996,860.6593406593407,910.2197802197802,0.269653,0.173462,0.956238,2.444916,-6.579590,7.656250,1,1,1,1,1,83.421875
2018-11-10 12:39:58.817,1.171161132937263,-inf,0.8007316287129194,1.428160981458337,0.4035569053008454,-inf,0.4158020768468634,0.6291011091429501,0.3757357281158716,-inf,-0.01227784063567017,0.4666188494811409,-0.04592232737841193,-inf,-0.1701951186811475,0.3626864012666036,-0.1593143050801923,-inf,-0.9428668887876872,-0.1312860119301969,869.92673992674,25.38461538461539,826.4102564102565,869.1208791208792,840.9157509157509,0.265381,0.172180,0.955872,-0.874786,1.286011,1.218719,1,1,1,1,1,83.421875
2018-11-10 12:39:59.809,0.8726379454864979,-inf,0.5798337356859063,1.176550321350712,0.02783663401731181,-inf,0.08687343201003631,0.1803870991801834,0.4259709275522481,-inf,0.003628489127504358,0.4793592162860886,0.08553902761673289,-inf,-0.1844757879049181,0.1808828929887348,-0.3570573663075881,-inf,-0.8599850975090784,-0.3378556033920576,862.2710622710623,25.38461538461539,825.6043956043957,860.2564102564103,872.7472527472528,0.270325,0.173096,0.952332,-0.343933,1.914062,2.160797,1,1,1,1,1,83.406250
2018-11-10 12:40:00.824,0.5353685991950884,-inf,-0.0441553777468233,0.548460352470851,-0.1015152506541037,-inf,-0.2371989095934786,-0.04763085084472821,0.2170873251607957,-inf,-0.07978751089499958,0.5494248963668417,0.06589338842238839,-inf,-0.4040765079781203,-0.05183710931419007,-0.5718060990965278,-inf,-0.7495664197977941,-0.4425781139748073,851.3919413919414,25.38461538461539,833.2600732600733,864.2857142857143,896.1172161172161,0.272034,0.174255,0.952026,-0.717773,1.779480,3.222504,1,1,1,1,1,83.406250
2018-11-10 12:40:01.817,0.04705928295617519,-inf,0.1647519593867684,0.1990647175333157,-0.07352215011423748,-inf,-0.2982107830169129,0.003931298011737697,0.175787030581,-inf,-0.06390884746900312,0.5267523774482341,0.1121782622628209,-inf,-0.4584951821415188,-0.1160677313848492,-0.3492163952929762,-inf,-0.7185481529806795,-0.4131342599277135,861.0622710622711,25.38461538461539,843.3333333333334,863.0769230769231,828.4249084249085,0.279968,0.175903,0.945251,-0.485992,1.510315,2.714081,1,1,1,1,1,83.406250
2018-11-10 12:40:02.809,0.5159876511286758,-inf,0.01357100562868049,0.3024913461084252,0.1167192395414795,-inf,-0.2729988036020258,0.04612054477105097,0.4299221788508739,-inf,-0.3633984010705923,0.578095947353402,0.188502089188744,-inf,-0.3966743313754612,0.1261666667129819,-0.2089063732753529,-inf,-0.8138017465548576,-0.6215878307115527,813.1135531135532,25.38461538461539,836.0805860805862,851.7948717948718,894.1025641025641,0.278442,0.174316,0.949402,-0.852356,1.727142,2.616882,1,1,1,1,1,83.406250
2018-11-10 12:40:03.815,1.724865006817468,-inf,-0.4208540432977437,0.2744900154717134,0.2865003545436866,-inf,-0.3895158909879365,0.160995565576644,0.4937113750724157,-inf,0.06208111446349285,0.6562995398255415,0.3013832371474593,-inf,-0.387398985302619,0.1502964850402773,-0.3196206030872885,-inf,-0.8658423940906994,-0.6087672777500323,827.2161172161173,25.38461538461539,840.1098901098901,866.3003663003664,849.7802197802198,0.280518,0.173096,0.950562,-0.867310,1.831818,2.998199,1,1,1,1,1,83.406250
2018-11-10 12:40:04.809,1.952921385944894,-inf,0.06954828316776586,0.4640666099005347,0.3054102878564239,-inf,-0.3635962144328304,0.0462799492161045,0.3385550094025392,-inf,0.06822637466594006,0.5186037356014497,0.140391758077192,-inf,-0.4831881109296439,-0.0104448458488805,-0.4000022657376236,-inf,-0.9514104869644723,-0.4445384874408236,855.8241758241759,25.38461538461539,838.901098901099,859.8534798534798,885.2380952380953,0.278381,0.168701,0.947571,-0.814972,2.011261,2.758942,1,1,1,1,1,83.406250
2018-11-10 12:40:05.809,0.9658590356950774,-inf,0.3744720505624985,0.6895789296607706,0.0008917013137066986,-inf,-0.3439561879803224,0.02802904970648537,0.3150004888970926,-inf,-0.1737415874168759,0.3936825726138335,-0.05947908665374758,-inf,-0.4899904460454234,0.03494022411391862,-0.1755662844095661,-inf,-0.8380493880992318,-0.3804196572236434,828.8278388278388,25.38461538461539,844.1391941391942,853.8095238095239,879.1941391941392,0.280701,0.171448,0.948303,-0.538330,1.906586,3.170166,1,1,1,1,1,83.406250
2018-11-10 12:40:06.826,0.7078756702754144,-inf,-0.03259320385781247,0.3959540616806052,-0.01579620643962579,-inf,-0.5004059463850121,0.09538111799203625,0.4808252184930584,-inf,-0.003751930191385257,0.3821401397169313,0.04102887158146978,-inf,-0.4613642533518321,-0.03347313952919356,-0.3752426425398563,-inf,-0.7364654992512775,-0.472883127820091,835.6776556776557,25.38461538461539,840.1098901098901,855.8241758241759,867.1062271062272,0.281067,0.170654,0.949951,-0.770111,1.757050,2.773895,1,1,1,1,1,83.406250
2018-11-10 12:40:07.814,0.6660132534676085,-inf,0.09167454008096715,0.4356463065747228,-0.1161256402676085,-inf,-0.3056802832476218,0.1005334925167035,0.4680142448713355,-inf,-0.005167410743133735,0.4040243393409976,0.01334169587145629,-inf,-0.328470571152313,-0.02744307427762225,-0.5261778887914742,-inf,-0.8057378690401934,-0.4785058282476701,866.3003663003664,25.38461538461539,844.5421245421246,873.5531135531136,925.1282051282052,0.279358,0.170471,0.948853,-0.583191,2.130890,3.244934,1,1,1,1,1,83.406250
2018-11-10 12:40:08.809,0.7735912423392212,-inf,0.7308216322842237,0.7542569621230729,-0.1344865237168587,-inf,-0.04000243929931072,-0.02767000647897245,0.09307148089939783,-inf,-0.3033063481597095,0.1182949674618076,-0.07364539780645753,-inf,-0.3247314598376252,0.02001672518345994,-0.3453075734588447,-inf,-0.8926649848572941,-0.4478099600255063,851.3919413919414,25.38461538461539,841.7216117216118,850.5860805860806,803.4432234432235,0.281311,0.165222,0.948120,-0.859833,1.629944,2.871094,1,1,1,1,1,83.406250
2018-11-10 12:40:09.809,0.6605445026577723,-inf,0.7371759344944324,0.7427463102496651,0.1820264596669334,-inf,-0.08975488253944316,0.3392842252311735,0.2756003919897791,-inf,-0.1792876214730262,0.08899870362561302,-0.06440633224779049,-inf,-0.5089169167982985,-0.1367259215965878,-0.3527504820743661,-inf,-0.8130102112915494,-0.3666455645748897,858.2417582417582,25.38461538461539,846.5567765567765,856.6300366300367,857.032967032967,0.287415,0.171936,0.939941,-0.814972,1.629944,2.631836,1,1,1,1,1,83.375000
2018-11-10 12:40:10.809,0.5418541540915615,-inf,-0.1825118625637804,0.5416230884144689,0.2434859869427858,-inf,-0.4120516329116902,0.2553593357577112,0.1974056464963015,-inf,-0.1376928331365126,0.3456983216951823,-0.04777612428161541,-inf,-0.5845245953041091,-0.02739563626620522,-0.3946763647748219,-inf,-0.8157386626654348,-0.5051573266060132,852.6007326007326,25.38461538461539,846.959706959707,857.4358974358975,840.1098901098901,0.278748,0.168396,0.943176,-0.986938,1.824341,3.558960,1,1,1,1,1,83.375000
2018-11-10 12:40:11.808,0.125738965307854,-inf,-0.07545642383934301,0.1377560145716207,-0.05942382888283964,-inf,-0.1905387705043816,0.1189019641511005,0.2066702204768616,-inf,-0.1348760468250287,0.3243980051662661,0.06360690671942169,-inf,-0.3129714239554348,-0.1180187739144269,-0.2771346825794724,-inf,-0.9154641971303175,-0.6538466668493201,853.0036630036631,25.38461538461539,846.959706959707,852.1978021978023,864.2857142857143,0.284607,0.167847,0.948914,-0.949554,1.899109,2.220612,1,1,1,1,1,83.375000
2018-11-10 12:40:12.821,0.2355718614278024,-inf,0.06671516887690375,0.1700119577286017,-0.3004719484559311,-inf,-0.3375215918591321,0.1319840400969139,0.267213467860013,-inf,-0.0886954274843942,0.3858060664375542,0.1292265420702016,-inf,-0.3651708638293019,-0.0326431205448164,-0.3205577652330023,-inf,-1.02179815934531,-0.4839560852184734,851.7948717948718,25.38461538461539,846.959706959707,867.1062271062272,878.7912087912089,0.286377,0.169434,0.947266,-0.687866,2.115936,3.117828,1,1,1,1,1,83.375000
2018-11-10 12:40:13.808,0.4996641132261835,-inf,0.04828563304886695,0.4301333483797098,-0.004408534690877967,-inf,-0.2629006381167543,0.07579996130404434,0.3238349234959738,-inf,-0.03235533484920832,0.1785630406769124,-0.0591441227903113,-inf,-0.3821242910403486,0.1445786646964531,-0.2654678855940977,-inf,-0.914955762314119,-0.5258524637939438,898.9377289377289,25.38461538461539,836.4835164835165,872.3443223443223,835.2747252747253,0.296204,0.166931,0.946655,-1.540222,-0.575714,3.005676,1,1,1,1,1,83.375000
2018-11-10 12:40:13.847,,,,,,,,,,,,,,,,,,,,,,,,,,,,,,,,,,,,,,/muse/elements/blink
2018-11-10 12:40:14.362,,,,,,,,,,,,,,,,,,,,,,,,,,,,,,,,,,,,,,/muse/elements/blink
2018-11-10 12:40:14.809,0.6633413983248997,-0.743741482070737,1.440133159747559,0.6909766110039023,0.09118665929380806,-0.6267588781371582,-0.01515517448433939,0.009963728011878311,0.2069389204533782,0.1603365352306105,0.1586347500552996,-0.06066291614215037,-0.07440036029311245,-0.1610273965220513,-0.3957553089317962,0.1727303149507616,-0.2196074627590356,-0.4448694088402317,-0.6540602182182472,-0.4616567528688095,844.1391941391942,25.38461538461539,902.5641025641025,844.9450549450549,820.7692307692308,0.426208,0.144043,0.879639,4.815063,-1.293488,9.891815,1,1,1,1,1,83.375000
2018-11-10 12:40:15.809,1.257752334977643,-0.6300898683290912,1.60120341403064,1.217191781108751,0.622774888571528,-0.5212021151641943,0.3688321492454424,0.9998341943630504,0.8613861094230515,0.1603365352306105,-0.06723244998679194,0.5240709060329632,0.4809677549238826,-0.05557657992110474,-0.2230929872440324,0.568903756728382,0.1416486339117234,-0.3400091429227117,-0.4588289751857174,0.136882634431489,848.974358974359,120.8791208791209,853.0036630036631,850.1831501831502,906.996336996337,0.469604,0.141113,0.872742,-2.415009,5.600128,5.024414,1,1,1,1,1,83.375000
2018-11-10 12:40:16.818,1.002779790580862,0.5892193508528497,0.9905292999307037,0.9984467003305867,0.4044654265577898,0.5671366437659958,0.1608607120453226,0.7403407943102817,0.8647659452143515,0.9763699856821975,-0.2202587746261291,0.7843585458140607,0.3861842077975918,0.454430435783465,-0.4627300561759309,0.3457335411752049,-0.01279847086751439,-0.1011256280788879,-0.7921366527733146,-0.05873758802747663,857.032967032967,39.08424908424909,849.7802197802198,863.0769230769231,886.8498168498169,0.455322,0.151123,0.874634,0.650482,1.315918,5.129089,1,1,1,1,1,83.375000
2018-11-10 12:40:17.809,0.09180900831907526,0.9830545305883451,0.2295648672754231,0.372655888285391,-0.3252256189448023,0.6152824591937461,-0.08682881769724538,0.0644721584614539,0.08537454418432748,1.119461582949377,-0.1894607752566786,0.6252423615163334,-0.03312821750839075,0.9430374629490588,-0.3801137674286829,0.05456314506705867,-0.1538200748627164,0.6704904553487042,-0.812454306734282,-0.1646770078049309,834.0659340659341,30.21978021978022,849.3772893772895,819.96336996337,861.8681318681319,0.466125,0.156311,0.875366,-2.048645,4.942169,0.493469,1,1,1,1,1,83.375000
2018-11-10 12:40:18.035,,,,,,,,,,,,,,,,,,,,,,,,,,,,,,,,,,,,,,/muse/elements/blink
2018-11-10 12:40:18.308,,,,,,,,,,,,,,,,,,,,,,,,,,,,,,,,,,,,,,/muse/elements/blink
2018-11-10 12:40:18.809,0.352653793974072,1.180778792490763,0.5861082798864832,0.5715511822985073,0.2804389902583725,0.7512249029427559,-0.04277887823274423,0.443105282466883,0.5636240513605753,1.033893520078241,-0.05253775126083737,0.6322642757719054,0.06623950845971115,1.200890911874242,-0.346393395168996,0.1898570855676653,-0.1418044363279885,0.9943659085718815,-0.8033829826212059,-0.03984970101974413,925.1282051282052,574.1758241758242,867.1062271062272,955.7509157509157,805.4578754578755,0.242737,0.142029,0.943542,0.687866,-8.299255,13.503113,1,1,1,1,1,83.375000
2018-11-10 12:40:19.809,0.633345917563652,1.009585903782693,1.743999789899348,0.7205513077829612,0.5487750869194004,0.6245911096786195,0.972277052041102,0.6747105418677004,0.5636240513605753,0.9984096261479026,0.1796667183169597,0.6285615482676066,0.1924323229876309,1.101406070688419,-0.3535906246481124,0.2483304158209738,-0.1128290764906613,1.052827254297282,-0.5837764178593966,-0.1570320665906632,844.5421245421246,25.38461538461539,851.7948717948718,853.0036630036631,853.8095238095239,0.279419,0.150085,0.953918,-1.054230,-0.747681,1.383209,1,1,4,1,1,83.359375
2018-11-10 12:40:20.809,1.375152011175388,1.009585903782693,1.660364598855239,0.7205513077829612,0.5851148742606662,0.6245911096786195,0.7201205758906912,0.6747105418677004,0.7648632097969292,0.9984096261479026,0.3961306701831172,0.6285615482676066,0.3478212091415827,1.101406070688419,-0.2597137848097089,0.2483304158209738,0.1276031120069613,1.052827254297282,-0.5687701684314467,-0.1570320665906632,854.6153846153846,52.38095238095238,854.6153846153846,856.6300366300367,819.1575091575091,0.281921,0.159790,0.957397,1.360779,2.422485,0.463562,1,1,4,1,1,83.359375
2018-11-10 12:40:21.819,0.5952679733430034,1.009585903782693,1.204761016318477,0.4467001460396542,-0.2132612736631433,0.6245911096786195,0.3134544688630677,0.2117053426690094,0.5909094382347823,0.9984096261479026,0.3893639070311259,0.4874605052405123,0.1447425484584927,1.101406070688419,-0.2930977327618293,0.1501721977657517,-0.2209677231401355,1.052827254297282,-1.031629884474798,-0.3955336217418663,853.0036630036631,305.8241758241758,849.3772893772895,857.032967032967,840.1098901098901,0.299927,0.165344,0.944153,-0.433655,2.071075,2.736511,1,1,2,1,1,83.359375
2018-11-10 12:40:22.822,0.1307771754768296,1.009585903782693,0.8351110972817748,0.1514967863610304,0.0832463740072678,0.6245911096786195,-0.103754448817251,0.2545681819224319,0.1710467998331126,0.9984096261479026,-0.06332379688605191,0.4405039026059884,-0.1959194914362054,1.101406070688419,-0.2747421217187092,0.05143619996493512,-0.4949600021744101,1.052827254297282,-1.034956580559118,-0.5971926543453875,857.032967032967,291.3186813186813,854.6153846153846,855.0183150183151,821.978021978022,0.291321,0.169678,0.947021,-0.433655,2.257996,3.708496,1,1,2,1,1,83.359375
2018-11-10 12:40:23.808,0.2733843834299491,1.009585903782693,0.9165150072148389,0.5267537008435792,0.2293533904787853,0.6245911096786195,0.006141770622238483,0.3929285000000526,0.1545744896596033,0.9984096261479026,-0.00282101615449005,0.4030590337866967,-0.05876461630561618,1.101406070688419,-0.3056094437214014,0.06023081198543111,-0.4973183646985409,1.052827254297282,-0.9292757305838543,-0.481074014204804,861.0622710622711,25.38461538461539,853.4065934065934,858.2417582417582,855.8241758241759,0.285461,0.171814,0.942688,-0.994415,4.478607,3.192596,1,1,2,1,1,83.359375
2018-11-10 12:40:24.809,0.6927929486939898,1.009585903782693,1.689384938849986,1.05804839855914,0.0956507101978914,0.6245911096786195,0.331834596737915,0.3999985368644494,0.02300452800361619,0.9984096261479026,-0.001095436354691088,0.1112204790043963,0.05576199120222559,1.101406070688419,-0.2905469418248073,0.08791500581970488,-0.1056647035511045,1.052827254297282,-0.7147343499597806,-0.1657020921165343,840.9157509157509,327.1794871794872,840.5128205128206,852.6007326007326,866.3003663003664,0.298462,0.170227,0.944275,-0.740204,1.443024,2.444916,1,1,2,1,1,83.359375
2018-11-10 12:40:25.808,1.002640128777312,1.009585903782693,1.924499536769029,1.183100190876953,0.05581724116286627,0.6245911096786195,0.3914770100137977,0.3715394725901406,0.2905167790045242,0.9984096261479026,0.5493873854266876,0.6860756773409269,0.2407357782989996,1.101406070688419,-0.1710957550298438,0.2872916793398897,-0.08447536631634626,1.052827254297282,-0.6623808557808901,0.04159219585318189,845.3479853479854,25.38461538461539,859.8534798534798,851.7948717948718,858.2417582417582,0.261169,0.170959,0.954712,0.523376,2.661743,3.678589,1,1,2,1,1,83.359375
2018-11-10 12:40:26.812,1.325995067235087,1.009585903782693,1.606329293153492,1.417638117140045,0.1273625203853084,0.6245911096786195,0.2612697636192846,0.5359577328456909,0.4768023958854837,0.9984096261479026,0.4320731132013864,0.6596299558281365,0.5539290205523744,1.101406070688419,-0.1451359685480346,0.3784050794171244,0.2673776120388235,1.052827254297282,-0.710251511943897,0.3491664747400396,865.0915750915751,420.2564102564103,840.9157509157509,850.989010989011,851.7948717948718,0.299133,0.175659,0.943665,1.988831,-1.570129,4.381409,1,1,2,1,1,83.359375
2018-11-10 12:40:27.818,0.8199117228766818,1.009585903782693,1.085458270172685,0.7634168004502452,0.01138777136717203,0.6245911096786195,0.050703591544246,0.2301555838520124,0.5216431765219922,0.9984096261479026,-0.3142816601817881,0.3585832572586782,0.05499015808447365,1.101406070688419,-0.4263400993858875,0.03735442244223194,-0.09273759126514265,1.052827254297282,-0.9631492995412846,-0.1796985073519147,856.2271062271062,247.3992673992674,842.5274725274726,855.4212454212454,832.0512820512821,0.300903,0.169373,0.938965,-0.687866,2.527161,2.534637,1,1,2,1,1,83.359375
2018-11-10 12:40:28.158,,,,,,,,,,,,,,,,,,,,,,,,,,,,,,,,,,,,,,/muse/elements/blink
2018-11-10 12:40:28.819,0.49808784126561,1.009585903782693,0.4817274829472848,0.3702378756137324,0.04343084976292569,0.6245911096786195,0.09044417608813636,0.2942834895023064,0.05762276471552766,0.9984096261479026,-0.2218024635518811,0.3668286380988295,-0.2620689302304435,1.101406070688419,-0.3738288136034408,-0.2322134283152766,-0.6029256897784836,1.052827254297282,-0.9059229309599105,-0.7546950798702735,858.6446886446887,483.5164835164835,840.1098901098901,856.6300366300367,890.8791208791209,0.314209,0.169983,0.938904,-0.613098,1.106567,2.220612,1,1,2,1,1,83.359375
2018-11-10 12:40:29.826,0.6047144432721799,1.009585903782693,0.451135060349943,0.6987458348862841,-0.2295860739013887,0.6245911096786195,-0.04533372931838003,0.02770369170041558,0.3704612926047043,0.9984096261479026,-0.1134618506503884,-0.03560838146625567,0.08183087922665216,1.101406070688419,-0.3072175505286202,0.08088690784713917,-0.5050319904920412,1.052827254297282,-0.8474651795475422,-0.5565544549389945,839.3040293040293,370.6959706959707,839.3040293040293,839.3040293040293,805.0549450549451,0.308289,0.167114,0.941040,-1.128998,1.966400,3.289795,1,1,2,1,1,83.343750
2018-11-10 12:40:30.826,0.8496127061693267,1.009585903782693,0.1516118727705318,0.9146743799336045,0.2456044343181027,0.6245911096786195,-0.1638139119979619,0.2504058336266082,0.4717740287673659,0.9984096261479026,-0.007044916340602379,0.07466171210932951,0.1185438261712842,1.101406070688419,-0.3301041065699413,-0.1023920360236043,-0.5303549430257619,1.052827254297282,-0.9500392413879497,-0.382148970472771,871.941391941392,212.3443223443224,848.974358974359,861.8681318681319,835.6776556776557,0.315552,0.170227,0.939758,-0.568237,2.130890,3.050537,1,1,2,1,1,83.343750
2018-11-10 12:40:31.812,1.345285728833754,1.009585903782693,0.03670507656172757,1.330264015899167,0.2124684696136037,0.6245911096786195,-0.1828300922489583,0.2979279956706158,0.1467652104747827,0.9984096261479026,-0.1630158972364476,0.01195282305068226,-0.03089897092783736,1.101406070688419,-0.4065246599135905,-0.190465459428533,-0.6243306907859486,1.052827254297282,-0.7979738464051138,-0.3503942026645973,865.8974358974359,456.923076923077,842.9304029304029,862.6739926739926,870.7326007326008,0.316040,0.170227,0.938232,-0.672913,2.175751,2.609406,1,1,2,1,1,83.343750
2018-11-10 12:40:32.808,1.175570682627119,1.009585903782693,-0.100487522259639,1.156841123397527,0.1741653842915046,0.6245911096786195,-0.50306281807752,0.3016031797695828,0.30479047941976,0.9984096261479026,-0.2939899378151364,0.2497827926468278,-0.04978526379164566,1.101406070688419,-0.4231409059058751,-0.1217496757452482,-0.4735915643255185,1.052827254297282,-0.8465223597254743,-0.2415842037383872,871.941391941392,351.3553113553114,848.1684981684982,864.6886446886447,843.7362637362637,0.304932,0.167419,0.941162,-0.687866,3.028107,2.773895,1,1,2,1,1,83.343750
2018-11-10 12:40:33.822,1.519765739584317,1.009585903782693,-0.03796251078790509,1.591022229573139,0.9181478779307846,0.6245911096786195,-0.3477018956873804,0.9616902393842778,0.7867369128790762,0.9984096261479026,-0.3039647316402275,0.8808957231920778,0.116290361745723,1.101406070688419,-0.4009904518479441,-0.01059342150656949,-0.4200200283732892,1.052827254297282,-0.9654189279652828,-0.2788059865256459,857.4358974358975,490.7692307692308,854.2124542124542,860.2564102564103,880.8058608058608,0.303467,0.162598,0.942505,-0.381317,2.063599,2.684174,1,1,2,1,1,83.343750
2018-11-10 12:40:34.809,0.8252659984759741,1.009585903782693,0.1183908149363159,0.8328300744100483,0.2756971741986606,0.6245911096786195,-0.3110116909776001,0.4906696136317068,0.168803915575899,0.9984096261479026,-0.3413536517161311,0.254293582025973,-0.05885077425900082,1.101406070688419,-0.5608529949128962,-0.1816299176543599,-0.4388141962801698,1.052827254297282,-0.8951289390091234,-0.5557073819370858,861.8681318681319,516.1538461538462,851.3919413919414,865.4945054945056,850.1831501831502,0.302185,0.171387,0.942322,-0.657959,2.332764,2.811279,1,1,2,1,1,83.343750
2018-11-10 12:40:35.820,0.1361711831657628,1.009585903782693,0.1081865782112396,0.1653731641275383,-0.007979867047768567,0.6245911096786195,-0.4505832237241469,0.2310494001754307,0.2121182424019348,0.9984096261479026,-0.4045225233694121,0.2609858524223015,-0.03007523712981106,1.101406070688419,-0.4769420816273494,-0.05474029088947648,-0.441523666265935,1.052827254297282,-0.6688020432509795,-0.5271591712330042,854.6153846153846,382.7838827838828,848.5714285714286,855.4212454212454,838.4981684981685,0.304504,0.173462,0.937256,-0.852356,1.682281,2.811279,1,1,2,1,1,83.343750
2018-11-10 12:40:36.827,0.09633969361346255,1.009585903782693,-0.2162177463491315,0.2285276519444139,-0.1613449889246042,0.6245911096786195,-0.3910927632637594,-0.08517659762429793,0.1085321027567219,0.9984096261479026,-0.1926474677018584,0.2874620853758897,-0.08500669898919645,1.101406070688419,-0.4189780077922684,-0.1372637545525485,-0.4720512505266367,1.052827254297282,-0.7078993241825213,-0.5263441017318871,865.8974358974359,477.4725274725275,844.5421245421246,858.2417582417582,843.7362637362637,0.307922,0.167358,0.938965,-0.844879,1.315918,2.706604,1,1,2,1,1,83.343750
2018-11-10 12:40:37.811,0.1356248143801036,1.009585903782693,-0.1288750629422503,0.424069148639637,-0.1957138161482805,0.6245911096786195,-0.1285184645157962,0.2416645253613953,0.05993939863775863,0.9984096261479026,-0.1074056424657664,0.280860799703426,-0.2384024818344887,1.101406070688419,-0.4402606270095847,-0.1915896984595354,-0.5400161287328524,1.052827254297282,-0.9371268973148016,-0.5633762296387125,859.4505494505495,586.2637362637363,846.1538461538462,861.4652014652015,892.893772893773,0.311401,0.165222,0.939880,-0.904694,2.115936,2.729034,1,1,2,1,1,83.343750
2018-11-10 12:40:38.809,0.1089492456576632,1.009585903782693,-0.2993799152197716,0.2892569956565316,-0.02576496080554088,0.6245911096786195,-0.1305926708118394,0.453591998847313,0.2593220772194937,0.9984096261479026,-0.2041441078940381,0.3580517995724823,-0.1983838961617877,1.101406070688419,-0.4181672713048082,-0.2234178820092722,-0.5742016993017212,1.052827254297282,-0.8330185941156216,-0.4571622793965079,864.2857142857143,518.974358974359,849.3772893772895,861.8681318681319,849.3772893772895,0.312561,0.167419,0.938049,-0.620575,2.130890,2.564545,1,1,2,1,1,83.343750
2018-11-10 12:40:39.823,-0.0263641760252759,1.009585903782693,-0.3155419805218448,-0.03690173406641103,-0.08608846238795555,0.6245911096786195,-0.5824044083413442,0.01826508498001689,0.2126501643373697,0.9984096261479026,-0.4847774594078855,0.3536919300329541,-0.03072207157274317,1.101406070688419,-0.4376166698162708,-0.03592729299785635,-0.6191639054172088,1.052827254297282,-0.6894497934811119,-0.3811674430663854,859.047619047619,402.9304029304029,850.5860805860806,850.5860805860806,822.3809523809524,0.315430,0.170227,0.937744,-0.643005,1.884155,2.729034,1,1,2,1,1,83.328125
2018-11-10 12:40:40.809,-0.3087500268875614,1.009585903782693,-0.1900457388283776,0.05310671218329562,-0.1646901458306322,0.6245911096786195,-0.749541602327722,-0.05778749950461327,0.1630350146983713,0.9984096261479026,-0.3610533925494635,0.1576345710239925,-0.02982433185512445,1.101406070688419,-0.3783166677981119,0.05574278465148276,-0.4843515579355945,1.052827254297282,-0.5897548510728754,-0.5079819756482332,863.4798534798535,629.3772893772893,847.3626373626374,862.2710622710623,859.4505494505495,0.311951,0.169006,0.938171,-0.560760,1.921539,3.349609,1,1,2,1,1,83.328125
2018-11-10 12:40:41.809,-0.05960866628347124,1.009585903782693,0.01314230694480501,0.1088891013481373,-0.2937756260066162,0.6245911096786195,-0.4194320029434993,-0.01180745549404193,0.1640852594068452,0.9984096261479026,-0.3491313744969942,0.09502266796426925,-0.1491462452982531,1.101406070688419,-0.4904837553146683,-0.2223675849764454,-0.5945441966518612,1.052827254297282,-0.8271477101025032,-0.4483100332080418,852.6007326007326,527.8388278388279,841.3186813186813,855.4212454212454,863.8827838827839,0.312317,0.169922,0.938782,-0.755157,2.011261,2.654266,1,1,2,1,1,83.328125
2018-11-10 12:40:42.809,0.07074949641705564,1.009585903782693,0.05501286569796662,0.3466174915860696,-0.2948583991833977,0.6245911096786195,-0.1713923377433544,0.004052127483037879,0.5045166234276313,0.9984096261479026,-0.09378285658840865,0.1462665603196539,-0.05638917604449628,1.101406070688419,-0.5357148741983503,-0.0712697953594937,-0.6247154209429596,1.052827254297282,-0.9785065413161285,-0.5981761054200517,861.0622710622711,594.3223443223443,847.7655677655678,857.032967032967,848.1684981684982,0.309387,0.167908,0.940002,-0.777588,2.056122,3.200073,1,1,2,1,1,83.328125
2018-11-10 12:40:43.821,0.2583074143564292,1.009585903782693,0.1105132087411722,0.411851191664819,-0.1030053898471848,0.6245911096786195,-0.2318818866438044,0.06932358101446999,0.5743575966420706,0.9984096261479026,-0.01336651444548945,-0.004509527429321512,0.04523294725958694,1.101406070688419,-0.4853380674068996,-0.007505680699111079,-0.5128503960774682,1.052827254297282,-0.8587853920477452,-0.6063776613945522,859.8534798534798,635.0183150183151,846.959706959707,849.7802197802198,866.3003663003664,0.311707,0.168945,0.945374,-0.530853,2.228088,2.938385,1,1,2,1,1,83.328125
2018-11-10 12:40:44.811,0.05617435202564644,1.009585903782693,0.08608294729371761,0.2727731787883242,0.009387410462114646,0.6245911096786195,-0.2708038080854348,0.06746673151678978,0.4564667693027279,0.9984096261479026,-0.1166959232254291,0.3718166713687923,0.009746794212611392,1.101406070688419,-0.5005026857671627,0.1160624013890216,-0.4738644317305513,1.052827254297282,-0.8475355853489783,-0.7047854695159519,849.7802197802198,531.4652014652015,845.7509157509157,854.6153846153846,827.6190476190476,0.321594,0.173584,0.944580,0.396271,1.457977,3.043060,1,1,2,1,1,83.328125
2018-11-10 12:40:45.809,-0.1845695711652996,1.009585903782693,-0.4901624659860736,0.1367278607316705,0.01997989424764621,0.6245911096786195,-0.3721144281521921,0.1109629422699786,0.2657881427390262,0.9984096261479026,0.01983304009496241,0.4075890956329783,-0.1202629112831272,1.101406070688419,-0.4270140674031933,0.04834790338745648,-0.3607602015459462,1.052827254297282,-0.7538347526411167,-0.451593606826835,855.8241758241759,655.9706959706959,846.1538461538462,857.4358974358975,849.3772893772895,0.312256,0.173523,0.938904,-0.620575,2.145844,2.915955,1,1,2,1,1,83.328125
2018-11-10 12:40:46.808,0.004873045913768936,1.009585903782693,-0.4560462532674241,0.4148237336064716,-0.09698430868361539,0.6245911096786195,-0.3628661314619114,0.0347887475445665,0.09283863884570082,0.9984096261479026,-0.01246692870711544,0.2474256306582798,0.006111512716051604,1.101406070688419,-0.3617691188922665,0.09592453461263468,-0.4203200878546673,1.052827254297282,-0.7603144494453379,-0.3966881482882206,859.4505494505495,615.2747252747253,848.974358974359,862.6739926739926,866.3003663003664,0.315002,0.171875,0.939758,-0.441132,1.966400,2.886047,1,1,2,1,1,83.328125
2018-11-10 12:40:47.809,0.08435561183311292,1.009585903782693,-0.3659190550378987,0.4233996192444666,-0.416558016777047,0.6245911096786195,-0.4047411832541332,-0.1943625165664138,0.1342045947033578,0.9984096261479026,0.01342878070966204,0.2654736523308824,-0.06977219502869707,1.101406070688419,-0.3697422947733742,-0.0663832382080403,-0.3846383102456209,1.052827254297282,-0.8699660226850832,-0.4186367448933689,870.7326007326008,560.8791208791209,845.3479853479854,868.3150183150184,835.2747252747253,0.316162,0.173340,0.939636,-0.478516,2.086029,3.147736,1,1,2,1,1,83.328125
2018-11-10 12:40:48.820,0.2434913876212697,1.009585903782693,-0.4403654628629671,0.4310676784892321,0.06226424678008494,0.6245911096786195,-0.2084303236364427,0.2899749256729777,0.1155414547568673,0.9984096261479026,-0.0541936274515283,0.1838742207676222,-0.2471369943474936,1.101406070688419,-0.4500583770755666,-0.2311137775870642,-0.4208372101619891,1.052827254297282,-0.8025315109147528,-0.3221689242433646,861.8681318681319,569.3406593406594,849.7802197802198,863.8827838827839,847.7655677655678,0.311401,0.170410,0.938965,-0.964508,2.071075,3.102875,1,1,2,1,1,83.328125
2018-11-10 12:40:49.809,1.466531744254062,1.009585903782693,0.08080786843201369,1.481279517627131,0.4145992542684544,0.6245911096786195,-0.1162242915877063,0.4831427583378826,0.5043183211974971,0.9984096261479026,-0.05270926557981952,0.2997575436889243,0.0278772599318971,1.101406070688419,-0.5758546414695669,0.2566932065353324,-0.3685291310937164,1.052827254297282,-0.7855829090646901,-0.1194859332362354,878.3882783882784,924.7252747252747,834.4688644688645,878.7912087912089,882.8205128205128,-0.016113,0.151184,0.979919,-2.766418,15.342407,-2.377625,1,1,2,1,1,83.296875
2018-11-10 12:40:50.821,1.847223796948,1.009585903782693,0.6360591352972104,1.932853654058121,0.8657781439694097,0.6245911096786195,0.08432765333964787,0.9676919492374907,0.4795401943282061,0.9984096261479026,-0.2062302478061069,0.7717712344025917,0.4714498978303046,1.101406070688419,-0.5427073360139926,0.7329101750047727,-0.1207773434357424,1.052827254297282,-0.7753413506913257,0.2836601073678531,868.3150183150184,709.1575091575091,845.3479853479854,851.3919413919414,860.2564102564103,0.225525,0.165405,0.964172,-0.568237,-1.039276,2.654266,1,1,2,1,1,83.296875
2018-11-10 12:40:51.833,1.287072857004292,1.009585903782693,0.3377008398956027,1.151884270685885,0.7863356772300107,0.6245911096786195,0.001618644851440077,0.8700774433566372,0.3927738033167253,0.9984096261479026,0.01504601824644587,0.3235928443493407,0.1648751751426853,1.101406070688419,-0.457435453160998,-0.04027872931619107,-0.3896541984913313,1.052827254297282,-0.8522923352277132,-0.1091367518746029,857.8388278388279,278.021978021978,848.1684981684982,863.0769230769231,837.6923076923077,0.219116,0.162720,0.958984,-2.235565,6.153412,1.510315,1,1,2,1,1,83.296875
2018-11-10 12:40:52.809,0.7339100365941643,1.009585903782693,1.557604091226051,0.6186906264289486,0.2404343299492101,0.6245911096786195,0.8833282839726175,0.3841946747719004,0.587896433728795,0.9984096261479026,0.2697671114988967,0.2077687379132876,0.03812773067691336,1.101406070688419,0.01933730279893908,0.1204238679450634,-0.1714013649388822,1.052827254297282,-0.5071365527346791,-0.3507109511458349,853.0036630036631,678.9377289377289,846.5567765567765,852.6007326007326,866.3003663003664,0.236267,0.176208,0.947876,0.762634,-0.807495,4.433746,1,1,2,1,1,83.296875
2018-11-10 12:40:53.826,0.5040246399306452,1.009585903782693,1.624497636207505,0.6889884719310237,0.4486773833957921,0.6245911096786195,0.9268385788390086,0.4356207161310783,0.5724672492470493,0.9984096261479026,0.2793704491680474,0.2994317387450424,0.03552448223556627,1.101406070688419,0.02641943376006713,0.02184813183203151,-0.1532007673328539,1.052827254297282,-0.5451579376874154,-0.419218924214576,861.8681318681319,656.7765567765568,843.7362637362637,857.4358974358975,839.3040293040293,0.269226,0.184937,0.949158,-0.964508,1.884155,3.289795,1,1,2,1,1,83.296875
2018-11-10 12:40:54.809,0.3834753431181503,1.009585903782693,0.2754909809913876,0.5234441118377079,0.1862590835401862,0.6245911096786195,-0.1665463151088169,0.2071483071735585,0.2086761096831248,0.9984096261479026,-0.2062260207271265,0.208523779011086,0.05154684374978764,1.101406070688419,-0.2440396432073822,0.07919706594796003,-0.2624045339674625,1.052827254297282,-0.8739935271826009,-0.5252866659496995,852.6007326007326,701.9047619047619,844.1391941391942,852.1978021978023,879.1941391941392,0.259827,0.178467,0.954102,-1.241150,1.697235,2.504730,1,1,2,1,1,83.296875
2018-11-10 12:40:55.809,1.806735858921055,1.009585903782693,0.2436817221262023,1.866321142170164,0.8012914093092663,0.6245911096786195,-0.1730708922321017,0.7358055041523887,0.2269914203001037,0.9984096261479026,-0.2067398191659836,0.1952255256748532,-0.0616355350049546,1.101406070688419,-0.3226973116471751,0.2834505479659629,-0.2770502272480086,1.052827254297282,-0.675240311531609,-0.3219711578859945,874.7619047619048,555.6410256410256,836.0805860805862,869.92673992674,904.981684981685,0.247253,0.164734,0.956665,0.299072,-2.736511,4.538422,1,1,2,1,1,83.296875
2018-11-10 12:40:56.809,1.677960664981178,1.009585903782693,0.2633944120285387,1.857245371522909,0.9730928724555515,0.6245911096786195,-0.195317267026331,1.069308538400818,0.5461790016835361,0.9984096261479026,-0.1677370780582134,0.7337013882111071,-0.1967736362643714,1.101406070688419,-0.4705146976832104,0.3032798994887322,0.007240512625879109,1.052827254297282,-0.5539803094030807,-0.03961464293833088,867.9120879120879,659.5970695970697,848.5714285714286,862.2710622710623,842.9304029304029,0.285583,0.164246,0.950500,-0.560760,2.145844,2.235565,1,1,2,1,1,83.296875
2018-11-10 12:40:57.829,0.8500345603609365,1.009585903782693,-0.1218608850214478,0.8707164809457485,0.2709054832886179,0.6245911096786195,-0.4007814645523544,0.3394790296064107,0.5223955154210501,0.9984096261479026,-0.2525413032448476,0.363303203527762,-0.1640710037647863,1.101406070688419,-0.3957750855973546,0.1167610937131159,-0.2878020831910265,1.052827254297282,-0.76478232250333,-0.1292108190315631,855.4212454212454,677.7289377289377,843.7362637362637,857.8388278388279,841.3186813186813,0.278015,0.164307,0.949158,-0.620575,2.048645,2.579498,1,1,2,1,1,83.296875
2018-11-10 12:40:58.809,0.5343907840576123,1.009585903782693,0.1643255442490832,0.699772895495316,-0.3252815635375079,0.6245911096786195,-0.442302571193027,0.06745839094079746,0.2790497053086722,0.9984096261479026,-0.4405760892494827,0.07006710041671427,-0.06301055253597597,1.101406070688419,-0.2840099632812393,-0.04809952619514619,-0.3867870975588797,1.052827254297282,-0.7584236262187856,-0.4020979105406744,856.6300366300367,686.5934065934066,849.3772893772895,856.2271062271062,855.0183150183151,0.277832,0.169495,0.951416,-0.538330,1.929016,3.087921,1,1,2,1,1,83.296875
2018-11-10 12:40:59.809,0.3157613128426775,1.009585903782693,0.09924649740135215,0.585434222763818,0.08899098570599867,0.6245911096786195,-0.3970985966124705,0.2883279183018351,0.3472299505466964,0.9984096261479026,-0.3303593456967003,0.2121193536534836,-0.2006249027411515,1.101406070688419,-0.3912727397748657,-0.07312243108510219,-0.6134599563695581,1.052827254297282,-0.6990263873046465,-0.3957295454684709,860.2564102564103,695.4578754578755,848.1684981684982,852.1978021978023,834.0659340659341,0.274597,0.166992,0.950439,-0.403748,1.704712,3.386993,1,1,2,1,1,83.281250
2018-11-10 12:41:00.828,0.0342801078295316,1.009585903782693,-0.1828901816558457,0.2465564864704686,-0.02451474824083238,0.6245911096786195,-0.3467824800556977,0.3363408357336999,0.3167729451956079,0.9984096261479026,-0.05836500258743742,0.3916581442908772,-0.07920795204529564,1.101406070688419,-0.5741851978868804,-0.04794444673181044,-0.5279285020516034,1.052827254297282,-0.8785788965181287,-0.4276958996904466,860.2564102564103,691.8315018315019,848.1684981684982,859.047619047619,869.1208791208792,0.287109,0.172302,0.949768,-0.089722,1.368256,2.542114,1,1,2,1,1,83.281250
2018-11-10 12:41:01.814,0.07198047118772041,1.009585903782693,-0.06959382427014622,-0.02380209142987746,-0.1029882207024074,0.6245911096786195,-0.3614657842995853,0.09870489570431293,0.3685224980768394,0.9984096261479026,0.007433708361949396,0.388517711787202,-0.01665007013285971,1.101406070688419,-0.3769571867864294,-0.03664048407901703,-0.6334100318643915,1.052827254297282,-0.7726821228028606,-0.6222082395849688,860.6593406593407,763.956043956044,850.1831501831502,858.2417582417582,861.4652014652015,0.280640,0.169739,0.947021,-0.874786,2.332764,3.887939,1,1,2,1,1,83.281250
2018-11-10 12:41:02.828,0.3216759756924813,1.009585903782693,0.2274105969275043,-0.1242242333504268,-0.1130320577016784,0.6245911096786195,-0.1408252984232056,0.06488885621277192,0.2487325236146393,0.9984096261479026,-0.07689609969006689,0.3015637970714545,-0.03267489430191411,1.101406070688419,-0.4161478211241917,-0.06981357761504906,-0.4552802008238753,1.052827254297282,-0.8421307432702584,-0.5786779415967439,853.8095238095239,658.3882783882784,846.1538461538462,857.4358974358975,857.4358974358975,0.280151,0.166443,0.943359,-1.016846,1.779480,3.095398,1,1,2,1,1,83.281250
2018-11-10 12:41:03.809,0.1974110742429389,1.009585903782693,-0.2368634086676118,-0.09428495112516636,0.3048012648009998,0.6245911096786195,-0.3622179875192023,0.322830806096446,0.3150888973070733,0.9984096261479026,-0.2381210508004034,0.2524893134783988,-0.03752556532444062,1.101406070688419,-0.4265667560008915,0.001041993136679965,-0.3814697010616379,1.052827254297282,-1.03980311102043,-0.5049513750859153,859.047619047619,686.996336996337,845.3479853479854,851.3919413919414,842.5274725274726,0.286682,0.168579,0.949524,-0.575714,1.936493,2.168274,1,1,2,1,1,83.281250
2018-11-10 12:41:04.809,-0.1156683328663477,1.009585903782693,-0.4769286663885878,0.03672795423851637,0.2519957100926284,0.6245911096786195,-0.3618844033756249,0.2626159571131334,0.2914239392339077,0.9984096261479026,-0.2326390618413533,0.1893524102847782,0.06197322086241874,1.101406070688419,-0.4164812919971709,-0.007552477618499863,-0.3574897421284973,1.052827254297282,-1.071891605686115,-0.5832760707484047,849.7802197802198,643.8827838827839,843.3333333333334,855.4212454212454,877.1794871794872,0.285461,0.167908,0.948486,-0.635529,2.370148,3.237457,1,1,2,1,1,83.281250
2018-11-10 12:41:05.817,0.05145521206813932,1.009585903782693,-0.1647647293959009,0.393324938500752,-0.04363984751722617,0.6245911096786195,-0.3057718768642758,-0.2050162322817683,0.1764796603952174,0.9984096261479026,-0.2189755398404599,0.1047272240912184,-0.01097700481400133,1.101406070688419,-0.4111418964339016,0.03536605767815944,-0.3130684155236531,1.052827254297282,-1.001080543397291,-0.4485605049192112,854.6153846153846,802.6373626373627,846.959706959707,856.2271062271062,876.3736263736264,0.285339,0.166687,0.948486,-0.747681,1.555176,3.028107,1,1,2,1,1,83.281250
2018-11-10 12:41:06.809,-0.1617491635381223,1.009585903782693,-0.1115765929565707,0.2127776140159587,-0.4229069926245512,0.6245911096786195,-0.197179530574358,-0.1628937458973675,0.1907760080779715,0.9984096261479026,-0.2244385477347796,0.1860904973311278,-0.07533607226150435,1.101406070688419,-0.4972073099317514,0.09216212652314175,-0.4240079888634406,1.052827254297282,-0.8148848054448558,-0.4379517361042816,841.7216117216118,714.7985347985348,845.7509157509157,848.974358974359,843.3333333333334,0.287903,0.169067,0.950439,-0.209351,1.876678,2.758942,1,1,2,1,1,83.281250
2018-11-10 12:41:07.808,0.2990496256367992,1.009585903782693,-0.4525558817170027,0.08608524448834651,-0.2673994394819678,0.6245911096786195,-0.3626679280258414,-0.03398210503071744,0.07407049904324363,0.9984096261479026,-0.2280460056477944,0.1613963344766408,-0.2160401423168334,1.101406070688419,-0.4806966083916164,-0.002735203296769159,-0.6164915361848659,1.052827254297282,-0.7707862113539775,-0.4204831242549312,858.6446886446887,733.7362637362637,848.5714285714286,855.8241758241759,877.1794871794872,0.286011,0.170410,0.948792,-0.396271,1.906586,3.125305,1,1,2,1,1,83.281250
2018-11-10 12:41:08.809,0.1319453841523291,1.009585903782693,-0.2071997751385959,0.06369988162783949,-0.1963622755667537,0.6245911096786195,-0.4003541538616097,0.05032217433407148,0.2407072419539302,0.9984096261479026,-0.470997069347504,0.3514827470463432,-0.163075501168104,1.101406070688419,-0.4551945215255688,0.05955752664396941,-0.6377937041254758,1.052827254297282,-0.8118050611629204,-0.4062213626062544,853.4065934065934,718.4249084249085,850.5860805860806,866.7032967032967,856.6300366300367,0.286560,0.171204,0.947876,-0.672913,1.884155,2.788849,1,1,2,1,1,83.281250
2018-11-10 12:41:09.809,-0.2065715796719833,1.009585903782693,-0.05053716907659767,-0.07012170316298402,-0.1563862924071769,0.6245911096786195,-0.3933807458671439,-0.1669598496346154,0.1831696961674265,0.9984096261479026,-0.1028691187825405,0.5111503010501475,0.02833296925406203,1.101406070688419,-0.3620610390882608,0.105001373792285,-0.5854273326668331,1.052827254297282,-0.8543581727545601,-0.455472145843431,862.6739926739926,628.1684981684982,851.7948717948718,848.5714285714286,831.6483516483516,0.287170,0.170959,0.946594,-0.785065,2.071075,2.878571,1,1,2,1,1,83.250000
2018-11-10 12:41:10.809,-0.005334896586984782,1.009585903782693,-0.2962638227695271,-0.1142308566062114,0.09724462418778318,0.6245911096786195,-0.4863214234261261,-0.1259403267282838,0.4248878639602433,0.9984096261479026,-0.03794353417627281,0.5266194556801217,0.1782202824466895,1.101406070688419,-0.194914446417941,0.2184744820125637,-0.4604074080268545,1.052827254297282,-0.8261607579632985,-0.384854173982106,864.2857142857143,699.8901098901099,843.3333333333334,858.2417582417582,848.1684981684982,0.284180,0.170044,0.944458,-0.456085,1.891632,3.222504,1,1,2,1,1,83.250000
2018-11-10 12:41:11.810,0.2447838820926548,1.009585903782693,-0.06906027556681185,0.2817113846394316,0.1592061648711049,0.6245911096786195,-0.1773294881789193,0.1422151904782795,0.4289549952122919,0.9984096261479026,-0.1728635099272881,0.5383781962259617,0.128884785303482,1.101406070688419,-0.2415407524325327,-0.02042595887417323,-0.586047363827066,1.052827254297282,-0.81778231937313,-0.5981384667002494,863.4798534798535,846.5567765567765,847.3626373626374,866.7032967032967,932.3809523809524,0.291992,0.168640,0.946594,-0.523376,1.570129,3.102875,1,1,2,1,1,83.250000
2018-11-10 12:41:12.819,0.09359150953080891,1.009585903782693,-0.009602383866635802,0.2619738920135871,-0.1982241078840277,0.6245911096786195,-0.212339894120199,0.05294112466312142,0.6190801646261358,0.9984096261479026,-0.2669074492224962,0.4940575754575176,-0.009241052490558893,1.101406070688419,-0.2787528667183453,-0.1115267022133747,-0.6750602635877333,1.052827254297282,-0.8303419253208885,-0.6132549858965006,857.4358974358975,821.978021978022,848.974358974359,863.0769230769231,876.7765567765568,0.289734,0.168030,0.945251,-0.471039,1.958923,3.416901,1,1,2,1,1,83.250000
2018-11-10 12:41:13.809,-0.08736157488350227,1.009585903782693,-0.3056437918217381,0.1064937378305898,-0.2402030261165503,0.6245911096786195,-0.9071050873820021,-0.2075221285775225,0.6176419159288083,0.9984096261479026,-0.16782546658395,0.315002555853985,-0.0006913756990786085,1.101406070688419,-0.3850434841823834,0.008879654401982516,-0.5498488860882678,1.052827254297282,-0.8500720706984731,-0.5150125469203726,851.7948717948718,676.1172161172161,845.7509157509157,860.6593406593407,873.956043956044,0.286804,0.167419,0.950623,-0.628052,1.816864,3.215027,1,1,2,1,1,83.250000
2018-11-10 12:41:14.824,-0.1080924914515298,1.009585903782693,-0.3577489793815396,-0.02868178804999349,-0.08942273637673388,0.6245911096786195,-0.5914237572027775,0.04751066353450313,0.07908754874323388,0.9984096261479026,0.04022082021485783,0.3064580582540418,-0.09656034575822996,1.101406070688419,-0.4092591367532995,0.06751924072976821,-0.480334237009815,1.052827254297282,-0.8650882867542242,-0.5947260248883,848.974358974359,719.2307692307693,842.1245421245421,858.6446886446887,839.7069597069598,0.283325,0.166809,0.943481,-1.009369,2.115936,3.588867,1,1,2,1,1,83.250000
2018-11-10 12:41:15.809,0.06679864580341566,1.009585903782693,-0.3160836808444693,0.2640444961977825,-0.01989582625591835,0.6245911096786195,-0.583042645196385,-0.1380251855950438,0.04604994182411019,0.9984096261479026,0.05299712953732073,0.2817409170310039,-0.1514087399877465,1.101406070688419,-0.2966336537121674,0.151866349507757,-0.4428724671169397,1.052827254297282,-0.9110227815483309,-0.5509724678710122,850.989010989011,800.6227106227107,845.3479853479854,855.8241758241759,837.2893772893773,0.289795,0.167419,0.945618,-0.710297,2.026215,2.444916,1,1,2,1,1,83.250000
2018-11-10 12:41:16.808,0.3289616060259291,1.009585903782693,-0.4504063270312082,0.4089350493421243,-0.2711766680741622,0.6245911096786195,-0.4800044868499835,0.001969768180619279,0.143320878730172,0.9984096261479026,-0.1459013595889518,0.1754016433058767,0.01511477306372641,1.101406070688419,-0.4908367457951728,-0.0238494184521502,-0.4147745152758445,1.052827254297282,-1.029223205956272,-0.4659558150629677,854.6153846153846,666.8498168498169,845.7509157509157,853.8095238095239,835.6776556776557,0.287903,0.168945,0.948364,-0.613098,2.108459,3.304749,1,1,2,1,1,83.250000
2018-11-10 12:41:17.809,0.2107256191709141,1.009585903782693,-0.0312670354898824,0.233744365885706,0.0745436228855145,0.6245911096786195,-0.5137040562256288,0.09145399388864327,0.2388061037829194,0.9984096261479026,-0.1755753167508474,0.209732981640965,-0.0561765351498239,1.101406070688419,-0.5189940373774591,-0.08561083937182394,-0.3647758933633041,1.052827254297282,-0.9502563094784749,-0.3644829373203276,855.8241758241759,821.5750915750916,844.5421245421246,857.032967032967,831.6483516483516,0.289246,0.167480,0.943115,-0.859833,2.190704,2.766418,1,1,2,1,1,83.250000
2018-11-10 12:41:18.821,-0.05403248736206802,1.009585903782693,0.06214343035678841,0.1326217096341475,0.0502014181854971,0.6245911096786195,-0.5311419123282153,-0.228585379048775,0.07654292845051228,0.9984096261479026,-0.08307712068433734,0.1745107066551907,-0.1137488326544998,1.101406070688419,-0.4799787039241696,0.04314996085145741,-0.3728860114120017,1.052827254297282,-0.9604228262734334,-0.5252838633198359,858.6446886446887,895.3113553113553,844.9450549450549,863.4798534798535,874.3589743589744,0.291931,0.169678,0.945190,-0.747681,2.115936,2.729034,1,1,2,1,1,83.234375
2018-11-10 12:41:19.809,-0.1142945860015345,1.009585903782693,0.0004946598164976618,0.2778119664955451,-0.3258423801075748,0.6245911096786195,-0.2242232706795884,0.1312093324971165,0.1776536721997777,0.9984096261479026,-0.05285840831606047,0.2199023779167169,-0.09111131268586502,1.101406070688419,-0.2828801930508881,0.02452249082339278,-0.3831959402246307,1.052827254297282,-0.834751124179156,-0.5382179890107068,866.3003663003664,805.8608058608058,851.3919413919414,870.7326007326008,904.981684981685,0.287537,0.167480,0.945984,-0.770111,2.086029,3.050537,1,1,2,1,1,83.234375
2018-11-10 12:41:20.818,0.2816711164272892,1.009585903782693,0.02150402626065992,0.5242113279649744,-0.2666304337610226,0.6245911096786195,-0.6424745493722931,0.168280692775401,0.2030258875646656,0.9984096261479026,-0.1796834493579632,0.1845206611204977,0.1023317692751483,1.101406070688419,-0.33541116533727,-0.02723705156067111,-0.4214893039287773,1.052827254297282,-0.8796127303229839,-0.4189926874322977,863.4798534798535,760.7326007326008,850.1831501831502,868.7179487179487,855.0183150183151,0.284973,0.162048,0.944763,-0.485992,2.257996,3.215027,1,1,2,1,1,83.234375
2018-11-10 12:41:21.809,0.128370709786743,1.009585903782693,-0.1655155468087558,0.4627449308270738,0.01038062304979117,0.6245911096786195,-0.6836583150683256,0.09117861491593458,0.3874708550706949,0.9984096261479026,-0.2812991577513205,0.3429773138743588,0.006621167586324125,1.101406070688419,-0.5395310208928826,0.08013407353814958,-0.4012649802945295,1.052827254297282,-0.9495100576245766,-0.5853798476027645,853.0036630036631,784.9084249084249,849.7802197802198,863.0769230769231,873.1501831501831,0.290527,0.168396,0.940552,-0.702820,1.555176,3.177643,1,1,2,1,1,83.234375
2018-11-10 12:41:22.809,-0.1698164576479809,1.009585903782693,-0.1206835018536821,0.04613099475981294,-0.0100321196287401,0.6245911096786195,-0.3848292961922632,0.007243028547840301,0.3318925601195108,0.9984096261479026,-0.1946390693000185,0.3920254804238962,-0.1422873570243733,1.101406070688419,-0.6878216307948971,0.03051255665672631,-0.4845249139753704,1.052827254297282,-0.7958549540471371,-0.6259475243429893,848.1684981684982,783.6996336996338,849.7802197802198,857.4358974358975,852.6007326007326,0.292297,0.170898,0.945801,-0.687866,2.086029,3.072968,1,1,2,1,1,83.234375
2018-11-10 12:41:23.805,0.2223565991064107,1.009585903782693,-0.192438077005276,0.02975468669181644,-0.07230543740984778,0.6245911096786195,-0.432908374448296,0.1427360480959492,-0.1642801028334646,0.9984096261479026,-0.3950451925188811,0.164763734085122,-0.001099502145894071,1.101406070688419,-0.4695074626053089,0.04276743253498394,-0.6432556746193971,1.052827254297282,-0.8001823079934289,-0.4138514889207586,846.959706959707,839.7069597069598,847.7655677655678,850.989010989011,891.2820512820513,0.291626,0.168274,0.947144,-0.882263,2.011261,2.796326,1,1,2,1,1,83.234375
2018-11-10 12:41:24.825,0.2023990659535906,1.009585903782693,-0.2705865790099074,0.04752072868437322,-0.04737934064291901,0.6245911096786195,-0.5382615594632808,0.01153354655142884,0.4290545469663196,0.9984096261479026,-0.529334612840651,0.1814851460774088,-0.2056267951412856,1.101406070688419,-0.4827744839501845,-0.05021292351677512,-0.4470593077308989,1.052827254297282,-0.918122249752897,-0.5843804502646975,850.989010989011,765.9706959706959,844.1391941391942,851.3919413919414,855.8241758241759,0.291016,0.169556,0.945312,-0.710297,2.078552,2.908478,1,1,2,1,1,83.234375
2018-11-10 12:41:25.802,-0.211423023406748,1.009585903782693,-0.5287930459226826,-0.2886455280467092,-0.1493004276378428,0.6245911096786195,-0.5082015074944105,0.07957515827153734,0.5169895021249062,0.9984096261479026,-0.01181928024800632,0.7161243057369059,-0.1357048029537041,1.101406070688419,-0.4313550567629481,-0.1252210713612749,-0.5255818693984396,1.052827254297282,-0.8446940461244145,-0.6466934000760672,858.6446886446887,808.6813186813187,855.8241758241759,859.047619047619,884.4322344322345,0.290710,0.166260,0.943237,-0.777588,1.988831,3.058014,1,1,2,1,1,83.234375
2018-11-10 12:41:26.819,-0.1254499791919561,1.009585903782693,0.1154387317444234,-0.08486852940096461,-0.3244721271823897,0.6245911096786195,-0.07835079964474342,-0.05956626911536227,0.08543459926844382,0.9984096261479026,0.003933284801448714,0.6782299670676065,-0.1088097132281587,1.101406070688419,-0.469996283293895,-0.1381527696530518,-0.4603015690209395,1.052827254297282,-0.8164407246816719,-0.620679882694169,856.2271062271062,784.1025641025641,847.7655677655678,857.032967032967,887.6556776556777,0.292725,0.171204,0.945190,-0.388794,1.973877,3.140259,1,1,2,1,1,83.234375
2018-11-10 12:41:27.801,-0.2494823092751902,1.009585903782693,0.1401400739330072,-0.009003858387073637,-0.2769895442894498,0.6245911096786195,-0.1556404880424731,-0.104450678713361,0.3352102684572186,0.9984096261479026,-0.2955384038042373,0.171672311311273,-0.1495882643977495,1.101406070688419,-0.4152251943684232,-0.1840667835146858,-0.3565598208814968,1.052827254297282,-0.7509561848253491,-0.4757566216351335,853.4065934065934,780.8791208791209,850.5860805860806,860.2564102564103,862.6739926739926,0.293396,0.169495,0.945923,-0.560760,2.018738,3.005676,1,1,2,1,1,83.234375
2018-11-10 12:41:28.802,1.588022468361755,1.009585903782693,1.049916771867038,1.308684685073957,0.4318563309741981,0.6245911096786195,-0.06925467251134755,0.3530873793592557,0.4333315310909668,0.9984096261479026,0.1971994145118458,0.2679504261708169,0.00859618780457542,1.101406070688419,-0.5071880700486057,-0.3352276982534279,-0.2998994939975682,1.052827254297282,-0.8744412772030844,-0.3375525933346593,754.2857142857143,25.38461538461539,816.3369963369963,784.5054945054945,724.4688644688645,0.036926,0.131592,0.995422,1.443024,17.420959,1.121521,1,1,2,1,1,83.203125
2018-11-10 12:41:28.973,,,,,,,,,,,,,,,,,,,,,,,,,,,,,,,,,,,,,,/muse/elements/blink
2018-11-10 12:41:29.802,2.009340257917627,1.009585903782693,1.559162319498149,1.761156014091592,0.7476715581134544,0.6245911096786195,0.6144443816116639,0.6826835725936351,0.3327449317482293,0.9984096261479026,0.5699241243867301,0.1608854167228242,0.1263741590834002,1.101406070688419,-0.428655287748113,-0.2580683547657139,-0.2483575084131793,1.052827254297282,-0.8273879827704284,-0.4032483194382195,852.6007326007326,885.6410256410256,837.2893772893773,846.959706959707,827.6190476190476,0.055725,0.232361,0.958496,7.020721,12.164764,6.602020,1,1,4,1,1,83.203125
2018-11-10 12:41:30.802,1.236432722676623,1.009585903782693,0.9842700950216127,1.308703226972582,0.62850087457368,0.6245911096786195,0.2543152379486838,0.6767541656703757,0.3350957445299073,0.9984096261479026,0.3820166243623863,0.6263715564646715,0.3365710896296896,1.101406070688419,-0.3915516079252678,0.614295221899793,0.1695644313163237,1.052827254297282,-0.5686610174519708,0.3623552969090418,836.4835164835165,39.48717948717949,861.0622710622711,836.4835164835165,839.7069597069598,0.014343,0.060425,1.012939,2.841187,-3.237457,-4.515991,1,1,4,1,1,83.203125
2018-11-10 12:41:31.807,1.039087360181719,1.009585903782693,1.107265267464754,1.239371844377578,0.1804578723773301,0.6245911096786195,0.1845793426831726,0.5618900086449382,0.184103510655044,0.9984096261479026,0.3001246632910418,0.7752361695688001,0.2679461474073151,1.101406070688419,-0.2015982586961864,0.5587320241023003,0.2174571397034152,1.052827254297282,-0.5416678504377969,0.2053943721457275,832.4542124542124,1503.333333333333,833.2600732600733,846.1538461538462,850.989010989011,0.006409,0.062500,0.948669,-14.759216,36.456909,-10.086212,1,1,4,1,1,83.203125
2018-11-10 12:41:32.010,,,,,,,,,,,,,,,,,,,,,,,,,,,,,,,,,,,,,,/muse/elements/blink
2018-11-10 12:41:32.727,,,,,,,,,,,,,,,,,,,,,,,,,,,,,,,,,,,,,,/muse/elements/blink
2018-11-10 12:41:32.801,1.365182817838315,1.009585903782693,1.098787500987162,1.095207790554656,1.098322325096506,0.6245911096786195,0.3521320363110144,0.6499434871536925,1.264089556121469,0.9984096261479026,0.3435518022213024,0.7594266231764204,0.341378531905566,1.101406070688419,-0.09998030884426769,0.466244323044616,0.1594642724364423,1.052827254297282,-0.6667590361071165,0.164871972891396,841.3186813186813,1155.201465201465,857.032967032967,844.5421245421246,829.2307692307693,-0.251770,0.065186,0.961182,2.736511,-0.889740,4.157104,1,1,4,1,1,83.203125
2018-11-10 12:41:33.801,1.724582045750167,1.009585903782693,1.328583525784386,1.638573543759809,1.531440421774395,0.6245911096786195,-0.1132822066529979,1.060357250324339,1.264089556121469,0.9984096261479026,0.1107528752180572,0.8799203465266308,0.5592661491513965,1.101406070688419,-0.1901065381444264,0.2232060310450188,0.2292714583360207,1.052827254297282,-0.6353180478112019,0.3498709455223475,855.0183150183151,539.5238095238095,855.4212454212454,854.2124542124542,829.2307692307693,-0.177490,0.093018,0.981628,-2.990723,-0.358887,3.558960,1,1,2,1,1,83.203125
2018-11-10 12:41:34.805,1.294505410936418,1.009585903782693,0.3359890506775676,1.30669820821423,0.6486976022075875,0.6245911096786195,-0.1665923498011005,0.7850940996319069,0.8585627825737542,0.9984096261479026,-0.1766059503993564,0.5344566070024336,0.1556971477802201,1.101406070688419,-0.2869298806637901,0.2049499518102943,-0.01580346935184495,1.052827254297282,-0.7764530356389071,0.2162848734150179,845.3479853479854,444.4322344322345,843.3333333333334,838.4981684981685,800.2197802197802,-0.161987,0.076233,0.981812,-1.562653,1.413116,2.968292,1,1,2,1,1,83.203125
2018-11-10 12:41:35.813,0.7022571968020489,1.009585903782693,0.2453967056361533,0.9215451229898096,-0.02379634416360252,0.6245911096786195,-0.1226064573335404,0.2841839276047087,0.6823962569348424,0.9984096261479026,-0.1038325886932556,0.5244676630535207,-0.03106355016103032,1.101406070688419,-0.2015483367572974,0.2728269374335014,-0.2850290452432994,1.052827254297282,-0.7650455969772968,-0.143334485722651,860.2564102564103,813.5164835164835,851.7948717948718,854.6153846153846,858.6446886446887,-0.155457,0.077698,0.985840,-0.553284,2.467346,2.190704,1,1,2,1,1,83.203125
2018-11-10 12:41:36.809,0.2547133346360851,1.009585903782693,0.1386184531396481,0.4705188350677531,-0.4157440675860635,0.6245911096786195,-0.321230990781665,-0.03081609358873912,0.2192240394413087,0.9984096261479026,0.08225889049631011,0.3322794117639726,-0.08617231625068821,1.101406070688419,-0.4396365446105446,-0.02300599750653685,-0.3661604175687587,1.052827254297282,-0.7280002588122647,-0.5380590815021522,855.0183150183151,767.985347985348,841.3186813186813,850.5860805860806,834.4688644688645,-0.155518,0.074341,0.979431,-1.114044,1.764526,1.988831,1,1,2,1,1,83.203125
2018-11-10 12:41:37.802,-0.02622920853882661,1.009585903782693,0.08070369904143716,0.1098835877207156,-0.3797245925355425,0.6245911096786195,-0.2218253908663923,-0.1963521601858042,0.02763420633356278,0.9984096261479026,0.05040417103668082,0.3565569016339732,-0.0648452290365293,1.101406070688419,-0.4313382631228265,-0.08563696280471558,-0.2495036395949531,1.052827254297282,-0.7319551286253559,-0.4377163564377299,851.3919413919414,678.9377289377289,840.5128205128206,840.5128205128206,799.4139194139194,-0.149475,0.076294,0.989197,-0.007477,1.869202,2.616882,1,1,2,1,1,83.203125
2018-11-10 12:41:38.802,0.1412444539413292,1.009585903782693,-0.01169776403028125,0.4804488976190622,-0.3408734803689376,0.6245911096786195,-0.3267738081511295,-0.2107367364363583,0.01271972411212435,0.9984096261479026,-0.06414717076178275,0.4743138901308809,-0.1425592413134746,1.101406070688419,-0.3052478245791851,0.05192532625189649,-0.3702734976262778,1.052827254297282,-0.911403564743073,-0.5209666767558645,857.032967032967,952.9304029304029,843.3333333333334,860.6593406593407,866.3003663003664,-0.150391,0.078552,0.979919,-0.448608,2.915955,2.901001,1,1,2,1,1,83.187500
2018-11-10 12:41:39.805,0.2964368416532112,1.009585903782693,-0.05547728170968827,0.6084529401240255,-0.3569498253097672,0.6245911096786195,-0.4413862706483045,-0.06124360325902069,-0.03305750304019233,0.9984096261479026,0.1279803321111898,0.5279195961267124,-0.1683278249015609,1.101406070688419,-0.3508836528346547,0.04565041681955636,-0.2405513793951142,1.052827254297282,-0.9501089765504761,-0.540684814195161,864.6886446886447,709.1575091575091,836.4835164835165,861.8681318681319,855.0183150183151,-0.132019,0.088318,0.991760,2.385101,-8.097382,6.056213,1,1,2,1,1,83.187500
2018-11-10 12:41:40.802,0.6835638425730963,1.009585903782693,1.561534108108163,0.8465874475812609,-0.01451764263648709,0.6245911096786195,0.08109880680930844,0.3883131371462847,0.09566319435081799,0.9984096261479026,0.2276305979214661,0.5099030757155417,-0.1401801811162958,1.101406070688419,-0.5812306488297964,0.005333386416134736,-0.282444807259299,1.052827254297282,-0.6646471819139579,-0.294399728940464,856.6300366300367,656.7765567765568,873.956043956044,837.2893772893773,889.2673992673992,0.337280,0.188049,0.898376,-12.807770,6.430054,-9.914246,1,1,2,1,1,83.187500
2018-11-10 12:41:41.802,1.124998253371365,1.009585903782693,1.66578559575401,1.116054617819295,0.8012250391567196,0.6245911096786195,0.2706037576037543,1.081663875808222,0.4805996354056469,0.9984096261479026,0.192962456447309,0.7866668916231442,-0.05246597920872632,1.101406070688419,-0.4143600800029705,0.4930893232614922,-0.4412184380581328,1.052827254297282,-0.595046166021697,-0.06048718204326895,850.5860805860806,635.0183150183151,867.9120879120879,851.7948717948718,815.934065934066,0.380188,0.146179,0.919739,-3.357086,4.770203,-0.665436,1,1,2,1,1,83.187500
2018-11-10 12:41:42.810,0.6953725590748563,1.009585903782693,1.260198413585135,0.9581383880895264,0.4840059659686958,0.6245911096786195,0.3253448095709,0.8169787829512982,0.4602064899144875,0.9984096261479026,0.2299741915747931,0.8342603387342057,-0.264766558633575,1.101406070688419,-0.3370644894438362,0.3045745906231324,-0.615906725080682,1.052827254297282,-0.6408967039902151,-0.2092380749849596,856.2271062271062,703.919413919414,853.8095238095239,857.4358974358975,823.5897435897436,0.372070,0.145752,0.920105,-0.396271,1.233673,2.960815,1,1,2,1,1,83.187500
2018-11-10 12:41:43.811,0.3266084546126092,1.009585903782693,0.6604785655460084,0.586402302055148,-0.0484260228539963,0.6245911096786195,-0.07003709430413946,0.4115663401875283,0.07401779201773348,0.9984096261479026,0.1068947600987833,0.604174079092297,-0.1299552517651578,1.101406070688419,-0.4901424002885133,0.03925076266889781,-0.6063255725167445,1.052827254297282,-0.7253492533536248,-0.3665372740515031,856.2271062271062,612.0512820512821,849.3772893772895,858.6446886446887,837.6923076923077,0.367432,0.144897,0.918274,-0.912170,2.729034,2.601929,1,1,2,1,1,83.187500
2018-11-10 12:41:44.801,-0.2394387402704555,1.009585903782693,0.1814837267143047,0.1252757922906795,-0.1763009338185564,0.6245911096786195,-0.3098950538082059,0.09333126958661117,0.1579130733379107,0.9984096261479026,-0.1040986972989367,0.450257408387217,-0.07802380031649904,1.101406070688419,-0.5911473264250419,0.1034899798644557,-0.6161437002468564,1.052827254297282,-0.7849640043869515,-0.5226229166523335,858.2417582417582,759.1208791208792,855.8241758241759,857.8388278388279,844.9450549450549,0.372314,0.149170,0.917908,-0.650482,1.547699,2.601929,1,1,2,1,1,83.187500
2018-11-10 12:41:45.814,0.1176558052162598,1.009585903782693,-0.3864179582834067,0.1345035465141072,-0.2193796161287674,0.6245911096786195,-0.2193854651213792,0.2712581414471487,0.08767685842685558,0.9984096261479026,-0.2657248091428239,0.3690681197660983,-0.1102309280625103,1.101406070688419,-0.4944214719256408,0.1439804078388519,-0.6632838904823478,1.052827254297282,-0.788520319603591,-0.3360371162200641,854.2124542124542,821.1721611721612,848.974358974359,859.4505494505495,851.3919413919414,0.371277,0.148132,0.920166,-0.971985,2.265472,3.932800,1,1,2,1,1,83.187500
2018-11-10 12:41:46.805,0.05731510555901791,1.009585903782693,-0.4031705309009992,0.435929699270457,-0.1289997689204231,0.6245911096786195,-0.4084762701017263,0.2880228808772782,0.0497612396847421,0.9984096261479026,-0.1052246267853649,0.3792632648480431,-0.1054428504060749,1.101406070688419,-0.3369919289636044,0.1050879737915381,-0.5257198517249907,1.052827254297282,-0.8038040838152927,-0.3035202466305578,854.2124542124542,793.3699633699634,851.7948717948718,848.1684981684982,862.2710622710623,0.362854,0.149414,0.921326,-0.396271,2.332764,3.282318,1,1,2,1,1,83.187500
2018-11-10 12:41:47.802,-0.3448284107590725,1.009585903782693,-0.2605322690128821,0.06807119152346884,-0.1837851377639402,0.6245911096786195,-0.5986867205959924,0.03225987291912168,0.03839404525281043,0.9984096261479026,-0.056202484364239,0.4662980995600563,-0.1541421905398808,1.101406070688419,-0.2688134354940411,0.05678373326245686,-0.5470744576769286,1.052827254297282,-0.7386377374882451,-0.3218568403490262,856.2271062271062,835.2747252747253,847.7655677655678,862.2710622710623,855.0183150183151,0.354614,0.147705,0.924744,-1.128998,3.648682,2.198181,1,1,2,1,1,83.187500
2018-11-10 12:41:48.821,-0.3231015552248186,1.009585903782693,-0.2346340754108184,0.08574493475100026,-0.4889498719909842,0.6245911096786195,-0.4125258856945399,-0.08357867869937968,0.3810920394670783,0.9984096261479026,-0.06801835639668513,0.4746408055411047,0.0254740850686656,1.101406070688419,-0.2883753275861619,0.1160907211557445,-0.3621138337589437,1.052827254297282,-0.7316450230186176,-0.116045789936637,848.1684981684982,795.3846153846154,846.959706959707,848.974358974359,827.2161172161173,0.347656,0.147278,0.928833,-0.755157,2.033691,2.796326,1,1,2,1,1,83.156250
2018-11-10 12:41:49.804,0.0894951333217507,1.009585903782693,-0.6309124090667423,0.3957240959732674,-0.1502032171596701,0.6245911096786195,-0.7062507708476424,0.06634987605489578,0.3699658696859783,0.9984096261479026,-0.2241726898338422,0.4217002818777079,-0.05959140255823537,1.101406070688419,-0.4995087983877788,0.06488372666038573,-0.2732948427988456,1.052827254297282,-0.783074926048076,-0.1570764630445006,852.1978021978023,780.4761904761905,844.1391941391942,842.9304029304029,878.3882783882784,0.339905,0.144897,0.932129,-1.039276,2.736511,2.512207,1,1,2,1,1,83.156250
2018-11-10 12:41:50.808,0.0695767053345949,1.009585903782693,-0.5437104811969824,0.4250246540507596,-0.1374143809485407,0.6245911096786195,-0.491989363672426,0.05347637024800451,-0.07249407926447357,0.9984096261479026,-0.1754493773136581,0.2553483852240568,-0.1495420877989679,1.101406070688419,-0.5464007111659901,0.06557306900511073,-0.4604941635733332,1.052827254297282,-0.7114816814535456,-0.2120992154422019,855.8241758241759,867.5091575091575,845.7509157509157,849.3772893772895,899.3406593406594,0.335205,0.149109,0.933411,-0.777588,2.422485,2.377625,1,1,2,1,1,83.156250
2018-11-10 12:41:51.802,-0.02751698077706722,1.009585903782693,-0.3143854120117398,0.3024491283972994,-0.2879772120623409,0.6245911096786195,-0.4565005315835088,-0.3649870846978578,0.00948791928251657,0.9984096261479026,-0.1564941970807742,0.1298647493400759,-0.3346585621642116,1.101406070688419,-0.4282071047969436,0.1051435999320065,-0.6220650041751279,1.052827254297282,-0.7919253662913822,-0.1597282300066935,852.1978021978023,785.3113553113553,844.5421245421246,853.4065934065934,843.3333333333334,0.333191,0.147705,0.934753,-0.560760,2.078552,3.394470,1,1,2,1,1,83.156250
2018-11-10 12:41:52.805,-0.08470987982742836,1.009585903782693,-0.3617334601695905,0.1535743698937353,-0.2579252187156172,0.6245911096786195,-0.3422733632580497,0.005036572196113199,-0.1009134761111129,0.9984096261479026,-0.07772636619341354,0.2946676970748707,-0.2112202734250783,1.101406070688419,-0.3602178534740489,-0.05405022144675753,-0.4635090492621899,1.052827254297282,-0.8729574764482159,-0.2584784763489372,859.8534798534798,753.8827838827839,847.7655677655678,849.3772893772895,848.1684981684982,0.331421,0.148743,0.932678,-0.695343,1.674805,3.244934,1,1,2,1,1,83.156250
2018-11-10 12:41:53.802,0.1701707555568551,1.009585903782693,-0.3119417293797599,0.2329896409570634,-0.1707284288588234,0.6245911096786195,-0.3766661902231652,0.08140569984728731,0.1317075518911893,0.9984096261479026,0.0533817727256909,0.2351649705879874,-0.1842280447874128,1.101406070688419,-0.3964114735007014,-0.06781652821037651,-0.3856777567343333,1.052827254297282,-0.7324178277456425,-0.4452957404045134,849.7802197802198,812.3076923076924,848.974358974359,850.989010989011,841.7216117216118,0.341003,0.154968,0.928894,-0.299072,1.794434,3.087921,1,1,2,1,1,83.156250
2018-11-10 12:41:54.816,0.3060268157878303,1.009585903782693,-0.02323612695563998,0.2285758829901317,0.06400757661759349,0.6245911096786195,-0.4245936502683147,0.1222130049370893,0.1788892978267353,0.9984096261479026,0.03555212743318864,0.007488463321329259,0.03673192420766414,1.101406070688419,-0.5054539661117655,0.08063159155111399,-0.3075869370257088,1.052827254297282,-0.8006084891147409,-0.3130924880937277,840.5128205128206,838.4981684981685,843.7362637362637,853.8095238095239,874.7619047619048,0.341553,0.155334,0.928223,-1.016846,1.764526,2.542114,1,1,2,1,1,83.156250
2018-11-10 12:41:55.823,0.4193095433527257,1.009585903782693,-0.2113014249615486,0.3734542566496128,-0.000104934659043217,0.6245911096786195,-0.3067391547484573,0.2605960218570149,0.3680757967367637,0.9984096261479026,-0.2596127945643347,0.2741019661445652,0.1002752564056504,1.101406070688419,-0.5194297163002091,0.1298107599418331,-0.2792288038189403,1.052827254297282,-0.7890331895469066,-0.1933225480567954,851.7948717948718,720.4395604395604,850.5860805860806,848.5714285714286,858.6446886446887,0.329651,0.152222,0.931274,-0.702820,2.018738,2.654266,1,1,2,1,1,83.156250
2018-11-10 12:41:56.809,0.3275407918927263,1.009585903782693,-0.003647659295935333,0.5755168750086045,-0.2810989977257949,0.6245911096786195,-0.2568875975420565,0.1061549570974213,0.5790109340658065,0.9984096261479026,-0.3389197074517422,0.6604485849932676,0.0805025508737012,1.101406070688419,-0.4007366131455282,0.193845146968844,-0.424082024502421,1.052827254297282,-0.7469626954587516,-0.3381649574385915,856.2271062271062,817.948717948718,849.7802197802198,867.9120879120879,846.959706959707,0.327698,0.153931,0.931519,-0.605621,1.966400,3.760834,1,1,2,1,1,83.156250
2018-11-10 12:41:57.807,0.1220896441692266,1.009585903782693,-0.247587013716687,0.4664133972445498,-0.3221030368283766,0.6245911096786195,-0.06353815894080736,0.1694032400659636,0.33583241901114,0.9984096261479026,0.008273568880103457,0.8132205660544365,-0.04980237894332556,1.101406070688419,-0.277815310613528,0.1381513702709669,-0.4430986942427819,1.052827254297282,-0.6581502180188543,-0.3869359232409683,853.4065934065934,851.3919413919414,851.3919413919414,853.4065934065934,833.2600732600733,0.337952,0.156067,0.930847,-0.964508,2.145844,2.213135,1,1,2,1,1,83.156250
2018-11-10 12:41:58.815,0.2707892932822672,1.009585903782693,-0.1263254786634645,0.4676704625294882,-0.0931894814524255,0.6245911096786195,-0.09184185753629191,0.08651772968634737,0.1160551040881091,0.9984096261479026,-0.005474668794013893,0.6437781920014179,-0.03447201200661992,1.101406070688419,-0.1948850162725327,0.2857710517606989,-0.3609475095873911,1.052827254297282,-0.7800985945389367,-0.3343113383991346,856.2271062271062,741.3919413919414,847.3626373626374,845.7509157509157,846.1538461538462,0.338074,0.155518,0.933228,-1.039276,1.487885,3.274841,1,1,2,1,1,83.140625
2018-11-10 12:41:59.802,0.174145275416021,1.009585903782693,-0.02740045907794805,0.3830200438200705,-0.1709858803363019,0.6245911096786195,-0.275855813498107,-0.1254974296151513,-0.1163390482499494,0.9984096261479026,0.07562701883765732,0.0656380524110016,-0.1611970695000281,1.101406070688419,-0.3051283500368677,0.1672773604965594,-0.4331825184571295,1.052827254297282,-0.8756013079880268,-0.2226547798591129,857.032967032967,892.0879120879121,844.5421245421246,851.3919413919414,884.4322344322345,0.336060,0.153564,0.935791,-0.919647,2.100983,3.110352,1,1,2,1,1,83.140625
2018-11-10 12:42:00.812,-0.02322925451414575,1.009585903782693,-0.05267577126506651,0.2313221980287785,-0.3236036702182707,0.6245911096786195,-0.2197321834445994,-0.2198276225260235,-0.03752664969351668,0.9984096261479026,-0.1917961612107093,0.08619688524116205,-0.1241751577771424,1.101406070688419,-0.4404864951624056,0.1330873931686838,-0.4435862823605736,1.052827254297282,-0.811309805135228,-0.3017252606560617,851.7948717948718,849.7802197802198,843.7362637362637,853.4065934065934,898.5347985347986,0.335815,0.152588,0.928040,-0.785065,1.540222,3.043060,1,1,2,1,1,83.140625
2018-11-10 12:42:01.802,0.07452392094602743,1.009585903782693,-0.3172717759199737,0.01856116828755779,-0.1323965733112515,0.6245911096786195,-0.3370323848734604,-0.1166598302705534,-0.07470124581798791,0.9984096261479026,-0.102208901628578,0.08579990657539795,-0.01749276483722355,1.101406070688419,-0.4609472407208113,0.09059119615012017,-0.4650618967518063,1.052827254297282,-0.7582369703978442,-0.2887679636380904,844.5421245421246,865.0915750915751,840.5128205128206,849.7802197802198,862.2710622710623,0.326477,0.155396,0.934875,-0.523376,2.549591,3.304749,1,1,2,1,1,83.140625
2018-11-10 12:42:02.802,0.04726301406891895,1.009585903782693,-0.03343611632390523,0.1817163252213194,-0.05206884945793021,0.6245911096786195,-0.2946176753311163,-0.07393627389956618,0.2259791205937463,0.9984096261479026,-0.1130312848324305,0.1011133703817593,-0.08089734655144389,1.101406070688419,-0.3788667272507291,-0.03755137818702493,-0.4855796876402745,1.052827254297282,-0.7854896008905811,-0.2476264022165588,853.4065934065934,799.0109890109891,841.3186813186813,843.3333333333334,850.1831501831502,0.324036,0.154785,0.938354,-0.889740,1.323395,2.669220,1,1,1,1,1,83.140625
2018-11-10 12:42:03.821,0.01420585356865823,1.009585903782693,0.07125997924817212,0.5013898334430927,0.05007373271080384,0.6245911096786195,-0.4404839657878861,0.007117480062388035,0.4975266416216982,0.9984096261479026,-0.100461806578869,0.09952277084077668,-0.01681523519248674,1.101406070688419,-0.3518220140896495,-0.07364902307902577,-0.3292808373857758,1.052827254297282,-0.8421825536250108,-0.1654164026892739,852.6007326007326,814.3223443223443,848.974358974359,849.3772893772895,830.4395604395604,0.329712,0.155273,0.936829,-0.702820,2.310333,2.998199,1,1,2,1,1,83.140625
2018-11-10 12:42:04.801,0.203676914128313,1.009585903782693,-0.2301813346970528,0.5240011804673479,0.149675047930736,0.6245911096786195,-0.4038654412488172,0.03005112652767417,0.4753103695038947,0.9984096261479026,-0.2148118876348534,0.0459123305226544,-0.07171017807762238,1.101406070688419,-0.457751631819136,0.07015337914737044,-0.4109153711550309,1.052827254297282,-0.8389482932991676,-0.1998635497020815,851.3919413919414,783.2967032967033,846.959706959707,852.1978021978023,810.2930402930403,0.324280,0.152710,0.937012,-0.702820,2.295380,3.334656,1,1,2,1,1,83.140625
2018-11-10 12:42:05.806,0.1340114926293909,1.009585903782693,-0.001545149518327433,0.03078269858647271,-0.3197069562917058,0.6245911096786195,-0.5901717183082998,-0.008925279267488108,0.08376953975897811,0.9984096261479026,-0.318112372442566,0.06272739608261405,-0.1938552398144963,1.101406070688419,-0.4841643037176021,0.05328564307970276,-0.5059399357329043,1.052827254297282,-0.8179128016532611,-0.2924545138044989,854.6153846153846,809.0842490842491,849.3772893772895,854.2124542124542,811.0989010989011,0.322144,0.153992,0.937622,-0.575714,2.108459,2.915955,1,1,2,1,1,83.140625
2018-11-10 12:42:06.814,0.2544434055941199,1.009585903782693,-0.2323076606326455,0.2994112852242718,-0.3454481496271916,0.6245911096786195,-0.793793037605302,-0.001811028522852509,0.1256112660784805,0.9984096261479026,-0.0103980804862257,0.417791919972698,-0.1750866315193514,1.101406070688419,-0.4806560755499927,-0.07763282287701972,-0.3956990257318965,1.052827254297282,-0.8110071158507992,-0.2743418766690376,850.5860805860806,773.6263736263736,845.3479853479854,850.5860805860806,844.5421245421246,0.320862,0.155457,0.936829,-0.687866,2.145844,2.871094,1,1,2,1,1,83.140625
2018-11-10 12:42:07.802,0.9439417564836722,1.009585903782693,-0.2720054385604784,0.8095965425507178,0.08003747323363042,0.6245911096786195,-0.6452542379759183,0.07698363220024428,0.5304883652049512,0.9984096261479026,-0.05709913027776599,0.4064479190402454,0.07436838116031629,1.101406070688419,-0.4442673262170053,0.131935896618137,-0.441589749208719,1.052827254297282,-0.7843546387981898,-0.2736722126763862,832.8571428571429,770.4029304029305,842.9304029304029,828.4249084249085,815.1282051282052,0.322266,0.155212,0.937256,-0.680389,2.093506,3.087921,1,1,2,1,1,83.140625
2018-11-10 12:42:08.802,1.488119278614784,1.009585903782693,0.06069482192541106,1.447725254121397,0.5445687482071071,0.6245911096786195,-0.4840331770460315,0.6510478254750052,0.5418574651755453,0.9984096261479026,-0.3008752444542158,0.260420667694624,0.02761926016438283,1.101406070688419,-0.4447440911481232,0.227642725531503,-0.436066843236301,1.052827254297282,-0.8450737679221729,-0.1470956314182788,864.2857142857143,823.5897435897436,849.7802197802198,861.0622710622711,869.1208791208792,0.326050,0.153015,0.937988,-0.800018,1.614990,2.579498,1,1,2,1,1,83.109375
2018-11-10 12:42:09.811,1.282099848308731,1.009585903782693,0.01986294222575643,1.264717486048872,0.2972854644127914,0.6245911096786195,-0.2853809792074357,0.4818468836972563,0.111790223558666,0.9984096261479026,-0.3083858849616254,0.4675143994375483,0.04378146390071971,1.101406070688419,-0.5216618804907779,0.1611751942510282,-0.3630792580196648,1.052827254297282,-1.000897272142837,-0.1903603522249093,857.4358974358975,834.4688644688645,853.4065934065934,858.2417582417582,859.8534798534798,0.319763,0.151428,0.932434,-0.613098,2.018738,3.372040,1,1,2,1,1,83.109375
2018-11-10 12:42:10.802,0.5023360968311672,1.009585903782693,-0.3586715467872677,0.3397581134295849,0.1771250246798129,0.6245911096786195,-0.3117114908794698,0.1191278766979853,0.6768898624880281,0.9984096261479026,-0.1951473198137447,0.5477825305550149,-0.03326289149189898,1.101406070688419,-0.377067227274502,0.1424720365899404,-0.4498933392115006,1.052827254297282,-0.9664420581689506,-0.3704112406125492,859.8534798534798,861.4652014652015,845.7509157509157,849.7802197802198,881.6117216117217,0.325317,0.156006,0.937805,-0.314026,2.198181,1.943970,1,1,2,1,1,83.109375
2018-11-10 12:42:11.816,0.5169339578298117,1.009585903782693,-0.0955437060701784,0.3050781945506095,0.3352710912548242,0.6245911096786195,-0.2639190005141092,0.2713737518189707,0.6795996974002002,0.9984096261479026,-0.02805503063176538,0.6105509289501596,-0.08112047089672617,1.101406070688419,-0.4462714173930954,0.08044410876211928,-0.4017824992638738,1.052827254297282,-0.8761494614099907,-0.1804452564478033,854.6153846153846,775.2380952380953,845.3479853479854,848.5714285714286,850.5860805860806,0.331299,0.157959,0.935669,-0.807495,1.158905,2.915955,1,1,2,1,1,83.109375
2018-11-10 12:42:12.802,0.3288654158038313,1.009585903782693,0.1735954118032352,0.5175582410473366,0.160204279840701,0.6245911096786195,-0.4418887611716102,0.1135125245374525,0.142159006900354,0.9984096261479026,-0.1380867698663051,0.4355699178951852,-0.07654631732225932,1.101406070688419,-0.4487496887657988,0.2354354761379185,-0.3537384146459124,1.052827254297282,-0.9013170214261007,-0.01951530097631675,854.2124542124542,909.4139194139194,837.6923076923077,856.6300366300367,909.8168498168499,0.259399,0.172668,0.954468,0.291595,6.886139,2.190704,1,1,2,1,1,83.109375
2018-11-10 12:42:13.813,0.2461633179271754,1.009585903782693,0.2580868582440305,0.5408990576322377,-0.01479396816081039,0.6245911096786195,-0.3487347372599678,0.01184583811623407,0.255566862305708,0.9984096261479026,-0.1725314807124295,0.2758872915028305,0.02357778562967323,1.101406070688419,-0.3301850405672903,0.2865621531452848,-0.1535818983313496,1.052827254297282,-0.9179040281815257,-0.09365936414837459,847.7655677655678,897.3260073260074,830.0366300366301,859.4505494505495,842.1245421245421,0.248718,0.200317,0.947815,-0.560760,0.635529,3.244934,1,1,2,1,1,83.109375
2018-11-10 12:42:14.804,0.6204189240624726,1.009585903782693,0.0718557738059548,0.6434068609826373,0.1008210060050293,0.6245911096786195,-0.4419514259881664,0.01481042709686399,0.3121566199902768,0.9984096261479026,-0.1510235994221578,0.001449811557364146,0.1576757766094877,1.101406070688419,-0.258960070536197,0.1898173887092533,-0.184366196404791,1.052827254297282,-0.6698260591250105,-0.02662358447748478,875.5677655677656,1001.282051282051,835.6776556776557,876.3736263736264,838.4981684981685,0.200195,0.208862,0.963135,-0.381317,7.932892,-24.351959,1,1,2,1,1,83.109375
2018-11-10 12:42:15.604,,,,,,,,,,,,,,,,,,,,,,,,,,,,,,,,,,,,,,/muse/elements/blink
2018-11-10 12:42:15.816,0.7254266466900393,1.009585903782693,0.7543521932380226,1.20612174438903,-0.006521866127562189,0.6245911096786195,0.1441858018465792,-0.09647882576709466,0.3568000070883096,0.9984096261479026,-0.14275131783001,0.4717324609208454,0.4663561378262341,1.101406070688419,-0.3765018833838268,0.2367273210390704,-0.1012358303295801,1.052827254297282,-0.8369109681861604,-0.04457514780574302,856.6300366300367,811.9047619047619,855.0183150183151,865.8974358974359,803.8461538461539,0.198059,0.158997,0.964050,-0.665436,3.962708,2.160797,1,1,2,1,1,83.109375
2018-11-10 12:42:16.801,0.679167441182858,1.009585903782693,1.091739822988278,1.155349602040906,0.1705402605040265,0.6245911096786195,0.3390210184655315,0.2640834208870808,0.0485218466895346,0.9984096261479026,-0.021848166609709,0.5401309558192092,0.4188039628108526,1.101406070688419,-0.4653137281607885,0.2224255765172849,-0.2066922642443967,1.052827254297282,-0.7403356068164739,-0.3082987777396646,848.1684981684982,956.959706959707,848.1684981684982,842.9304029304029,873.5531135531136,0.178650,0.144104,0.975586,-1.278534,2.257996,3.192596,1,1,2,1,1,83.109375
2018-11-10 12:42:17.805,0.3445091441637606,1.009585903782693,0.2546947843081877,0.4670513902685308,0.08423539358647511,0.6245911096786195,-0.01365560008385786,0.4451946064434267,0.1146854372711508,0.9984096261479026,0.1945432254055113,0.4416247160639733,-0.09905483300659761,1.101406070688419,-0.3989266059909848,0.16906213805902,-0.420332206610475,1.052827254297282,-0.7678093649593525,-0.3390209411611196,849.7802197802198,810.2930402930403,842.5274725274726,846.959706959707,882.014652014652,0.186646,0.147827,0.972290,-0.328979,2.093506,3.858032,1,1,2,1,1,83.109375
2018-11-10 12:42:18.816,0.7018433666370161,1.009585903782693,0.3930501157172824,0.8090283120808809,0.1593450784992911,0.6245911096786195,0.07630553401099861,0.3416526986099858,0.02013626881814133,0.9984096261479026,0.1573205317650761,0.3967456530543623,0.03876688471640748,1.101406070688419,-0.362968997452628,0.1847922967906028,-0.1624650777107214,1.052827254297282,-0.6330322800940722,0.006956246015020896,786.9230769230769,56.81318681318682,853.0036630036631,799.0109890109891,809.4871794871796,0.193542,0.153442,0.973267,-1.076660,5.899200,4.329071,1,1,2,1,1,83.093750
2018-11-10 12:42:19.802,2.204094059635973,1.009585903782693,1.207159525534195,2.039436314102426,0.6393350447389674,0.6245911096786195,-0.02954893041176252,0.6036353234677575,0.4393772343483606,0.9984096261479026,0.02560218358384649,0.6076669525883096,0.5097670805113066,1.101406070688419,-0.3768092306202362,0.5486138469304266,0.5466648229835119,1.052827254297282,-0.4330591032242738,0.5540026608223848,848.1684981684982,586.2637362637363,850.5860805860806,845.3479853479854,850.989010989011,0.285950,0.137268,0.947876,-1.076660,0.680389,3.529053,1,1,2,1,1,83.093750
